ENLIGHTEN Version,1.6.8
Measurement ID,20190528-121138-178510-WP-00352
Serial Number,WP-00352
Label,Glucose 100g per L
Integration Time,1000
Timestamp,2019-05-28 12:11:38.178510
Note,
Temperature,-99
CCD C0,537.1995239257812
CCD C1,0.11956000328063965
CCD C2,-1.4522999663313385e-05
CCD C3,-2.756999961661677e-09
CCD Offset,0
CCD Gain,1.9
Laser Wavelength,532.0
Laser Enable,False
Laser Power,100.0
Laser Temperature,-99
Pixel Count,1024

Wavenumber,Processed
181.94,2.00
186.08,6.00
190.22,4.00
194.35,10.00
198.48,8.00
202.61,0.00
206.74,7.00
210.87,8.00
214.99,-17.00
219.11,-4.00
223.22,-1.00
227.34,-6.00
231.45,17.00
235.55,-14.00
239.66,-4.00
243.76,-4.00
247.86,6.00
251.96,-11.00
256.05,2.00
260.14,11.00
264.23,8.00
268.31,-4.00
272.39,15.00
276.47,18.00
280.55,-11.00
284.62,-8.00
288.70,12.00
292.76,9.00
296.83,6.00
300.89,-2.00
304.95,9.00
309.01,4.00
313.06,25.00
317.11,7.00
321.16,36.00
325.21,9.00
329.25,12.00
333.29,15.00
337.33,14.00
341.36,38.00
345.40,49.00
349.42,53.00
353.45,59.00
357.47,72.00
361.50,103.00
365.51,112.00
369.53,200.00
373.54,255.00
377.55,323.00
381.56,441.00
385.56,564.00
389.56,818.00
393.56,968.00
397.56,1227.00
401.55,1501.00
405.54,1807.00
409.53,2085.00
413.52,2218.00
417.50,2416.00
421.48,2644.00
425.45,2623.00
429.43,2703.00
433.40,2721.00
437.37,2562.00
441.33,2579.00
445.30,2603.00
449.26,2591.00
453.22,2539.00
457.17,2531.00
461.12,2378.00
465.07,2300.00
469.02,2294.00
472.96,2123.00
476.91,2135.00
480.84,2037.00
484.78,2178.00
488.71,2184.00
492.64,2344.00
496.57,2429.00
500.50,2621.00
504.42,2634.00
508.34,2774.00
512.26,2764.00
516.17,2882.00
520.08,2910.00
523.99,2834.00
527.90,2833.00
531.80,2635.00
535.70,2513.00
539.60,2384.00
543.50,2384.00
547.39,2266.00
551.28,2272.00
555.17,2183.00
559.05,2201.00
562.94,2144.00
566.81,2037.00
570.69,2037.00
574.57,2066.00
578.44,1950.00
582.31,2068.00
586.17,1898.00
590.04,1851.00
593.90,1917.00
597.76,1878.00
601.61,1887.00
605.46,1811.00
609.31,1681.00
613.16,1707.00
617.01,1642.00
620.85,1686.00
624.69,1584.00
628.53,1615.00
632.36,1621.00
636.19,1666.00
640.02,1655.00
643.85,1643.00
647.67,1568.00
651.49,1583.00
655.31,1558.00
659.13,1575.00
662.94,1522.00
666.75,1556.00
670.56,1536.00
674.37,1516.00
678.17,1603.00
681.97,1583.00
685.77,1624.00
689.56,1602.00
693.35,1448.00
697.14,1521.00
700.93,1541.00
704.72,1593.00
708.50,1484.00
712.28,1547.00
716.05,1522.00
719.83,1529.00
723.60,1519.00
727.37,1472.00
731.14,1478.00
734.90,1515.00
738.66,1496.00
742.42,1432.00
746.18,1428.00
749.93,1408.00
753.68,1518.00
757.43,1472.00
761.17,1427.00
764.92,1490.00
768.66,1474.00
772.40,1454.00
776.13,1543.00
779.86,1488.00
783.60,1448.00
787.32,1370.00
791.05,1429.00
794.77,1419.00
798.49,1346.00
802.21,1387.00
805.92,1364.00
809.64,1345.00
813.35,1311.00
817.05,1315.00
820.76,1372.00
824.46,1290.00
828.16,1316.00
831.86,1376.00
835.55,1379.00
839.24,1423.00
842.93,1524.00
846.62,1558.00
850.30,1653.00
853.98,1529.00
857.66,1525.00
861.34,1549.00
865.02,1451.00
868.69,1452.00
872.36,1373.00
876.02,1417.00
879.69,1295.00
883.35,1348.00
887.01,1324.00
890.66,1311.00
894.32,1430.00
897.97,1587.00
901.62,1648.00
905.26,1581.00
908.91,1674.00
912.55,1531.00
916.19,1619.00
919.83,1626.00
923.46,1634.00
927.09,1450.00
930.72,1281.00
934.35,1166.00
937.97,1048.00
941.59,1031.00
945.21,980.00
948.83,930.00
952.44,957.00
956.05,904.00
959.66,868.00
963.27,841.00
966.87,880.00
970.47,870.00
974.07,833.00
977.67,883.00
981.26,816.00
984.85,886.00
988.44,898.00
992.03,894.00
995.61,966.00
999.19,1031.00
1002.77,1024.00
1006.35,1016.00
1009.92,1217.00
1013.50,1235.00
1017.07,1383.00
1020.63,1524.00
1024.20,1463.00
1027.76,1527.00
1031.32,1539.00
1034.87,1558.00
1038.43,1579.00
1041.98,1638.00
1045.53,1674.00
1049.08,1800.00
1052.62,1767.00
1056.16,1876.00
1059.70,2005.00
1063.24,2077.00
1066.78,2149.00
1070.31,2160.00
1073.84,2060.00
1077.37,1916.00
1080.89,1836.00
1084.42,1677.00
1087.94,1628.00
1091.45,1494.00
1094.97,1449.00
1098.48,1463.00
1101.99,1632.00
1105.50,1638.00
1109.01,1916.00
1112.51,2047.00
1116.01,2250.00
1119.51,2530.00
1123.00,2793.00
1126.50,2789.00
1129.99,2785.00
1133.48,2648.00
1136.96,2502.00
1140.45,2176.00
1143.93,1880.00
1147.41,1640.00
1150.89,1450.00
1154.36,1364.00
1157.83,1286.00
1161.30,1185.00
1164.77,1084.00
1168.23,892.00
1171.70,828.00
1175.16,791.00
1178.61,709.00
1182.07,672.00
1185.52,545.00
1188.97,496.00
1192.42,521.00
1195.87,576.00
1199.31,601.00
1202.75,607.00
1206.19,622.00
1209.62,696.00
1213.06,696.00
1216.49,662.00
1219.92,622.00
1223.34,608.00
1226.77,620.00
1230.19,669.00
1233.61,665.00
1237.03,654.00
1240.44,746.00
1243.85,660.00
1247.26,782.00
1250.67,622.00
1254.08,733.00
1257.48,851.00
1260.88,808.00
1264.28,919.00
1267.67,962.00
1271.07,928.00
1274.46,875.00
1277.85,870.00
1281.23,727.00
1284.62,740.00
1288.00,748.00
1291.38,520.00
1294.76,687.00
1298.13,618.00
1301.50,639.00
1304.87,656.00
1308.24,715.00
1311.61,719.00
1314.97,848.00
1318.33,805.00
1321.69,934.00
1325.04,948.00
1328.40,1009.00
1331.75,1031.00
1335.10,1118.00
1338.44,1056.00
1341.79,1094.00
1345.13,1084.00
1348.47,1179.00
1351.81,1164.00
1355.14,1240.00
1358.48,1309.00
1361.81,1366.00
1365.13,1425.00
1368.46,1312.00
1371.78,1497.00
1375.11,1393.00
1378.42,1366.00
1381.74,1322.00
1385.06,1230.00
1388.37,1103.00
1391.68,1029.00
1394.98,909.00
1398.29,797.00
1401.59,727.00
1404.89,675.00
1408.19,622.00
1411.49,603.00
1414.78,601.00
1418.07,523.00
1421.36,476.00
1424.65,527.00
1427.93,470.00
1431.21,445.00
1434.49,457.00
1437.77,466.00
1441.05,487.00
1444.32,438.00
1447.59,473.00
1450.86,546.00
1454.12,654.00
1457.39,824.00
1460.65,799.00
1463.91,952.00
1467.17,874.00
1470.42,755.00
1473.67,611.00
1476.92,407.00
1480.17,242.00
1483.42,213.00
1486.66,112.00
1489.90,102.00
1493.14,103.00
1496.38,95.00
1499.61,72.00
1502.85,16.00
1506.08,-40.00
1509.30,61.00
1512.53,-27.00
1515.75,-26.00
1518.97,5.00
1522.19,63.00
1525.41,-11.00
1528.62,-40.00
1531.83,-33.00
1535.04,-50.00
1538.25,48.00
1541.46,-7.00
1544.66,0.00
1547.86,-103.00
1551.06,19.00
1554.26,-90.00
1557.45,51.00
1560.64,-31.00
1563.83,9.00
1567.02,86.00
1570.20,101.00
1573.39,228.00
1576.57,128.00
1579.75,175.00
1582.92,190.00
1586.10,241.00
1589.27,259.00
1592.44,272.00
1595.60,422.00
1598.77,293.00
1601.93,318.00
1605.09,344.00
1608.25,504.00
1611.41,473.00
1614.56,457.00
1617.71,488.00
1620.86,605.00
1624.01,577.00
1627.16,650.00
1630.30,746.00
1633.44,719.00
1636.58,677.00
1639.72,696.00
1642.85,745.00
1645.98,683.00
1649.11,747.00
1652.24,649.00
1655.37,543.00
1658.49,620.00
1661.61,627.00
1664.73,446.00
1667.85,464.00
1670.96,412.00
1674.07,422.00
1677.18,369.00
1680.29,295.00
1683.40,261.00
1686.50,171.00
1689.60,68.00
1692.70,97.00
1695.80,-14.00
1698.89,-13.00
1701.99,-80.00
1705.08,-88.00
1708.17,-175.00
1711.25,-169.00
1714.34,-234.00
1717.42,-210.00
1720.50,-301.00
1723.58,-306.00
1726.65,-382.00
1729.72,-427.00
1732.79,-471.00
1735.86,-437.00
1738.93,-495.00
1742.00,-533.00
1745.06,-573.00
1748.12,-498.00
1751.18,-555.00
1754.23,-525.00
1757.29,-559.00
1760.34,-584.00
1763.39,-639.00
1766.44,-638.00
1769.48,-597.00
1772.52,-627.00
1775.56,-628.00
1778.60,-651.00
1781.64,-625.00
1784.67,-759.00
1787.71,-736.00
1790.74,-865.00
1793.77,-697.00
1796.79,-772.00
1799.82,-698.00
1802.84,-741.00
1805.86,-784.00
1808.87,-795.00
1811.89,-695.00
1814.90,-785.00
1817.91,-763.00
1820.92,-771.00
1823.93,-729.00
1826.94,-769.00
1829.94,-777.00
1832.94,-790.00
1835.94,-833.00
1838.93,-778.00
1841.93,-863.00
1844.92,-869.00
1847.91,-879.00
1850.90,-787.00
1853.88,-785.00
1856.87,-778.00
1859.85,-828.00
1862.83,-833.00
1865.80,-898.00
1868.78,-791.00
1871.75,-807.00
1874.72,-827.00
1877.69,-867.00
1880.66,-816.00
1883.62,-875.00
1886.59,-818.00
1889.55,-853.00
1892.51,-941.00
1895.46,-816.00
1898.42,-810.00
1901.37,-763.00
1904.32,-892.00
1907.27,-913.00
1910.21,-891.00
1913.16,-833.00
1916.10,-892.00
1919.04,-837.00
1921.97,-879.00
1924.91,-839.00
1927.84,-826.00
1930.77,-765.00
1933.70,-883.00
1936.63,-820.00
1939.56,-877.00
1942.48,-860.00
1945.40,-860.00
1948.32,-864.00
1951.24,-887.00
1954.15,-868.00
1957.06,-833.00
1959.97,-841.00
1962.88,-799.00
1965.79,-865.00
1968.69,-816.00
1971.59,-869.00
1974.49,-824.00
1977.39,-763.00
1980.29,-793.00
1983.18,-825.00
1986.08,-801.00
1988.97,-809.00
1991.85,-797.00
1994.74,-786.00
1997.62,-851.00
2000.50,-778.00
2003.38,-849.00
2006.26,-802.00
2009.14,-818.00
2012.01,-766.00
2014.88,-795.00
2017.75,-795.00
2020.62,-702.00
2023.48,-713.00
2026.35,-725.00
2029.21,-738.00
2032.07,-712.00
2034.92,-763.00
2037.78,-714.00
2040.63,-694.00
2043.48,-827.00
2046.33,-721.00
2049.18,-702.00
2052.02,-757.00
2054.87,-744.00
2057.71,-670.00
2060.55,-689.00
2063.38,-648.00
2066.22,-706.00
2069.05,-696.00
2071.88,-689.00
2074.71,-695.00
2077.54,-675.00
2080.36,-631.00
2083.18,-677.00
2086.01,-744.00
2088.82,-668.00
2091.64,-679.00
2094.46,-646.00
2097.27,-726.00
2100.08,-780.00
2102.89,-715.00
2105.69,-712.00
2108.50,-702.00
2111.30,-706.00
2114.10,-638.00
2116.90,-675.00
2119.70,-690.00
2122.49,-668.00
2125.28,-700.00
2128.07,-757.00
2130.86,-696.00
2133.65,-674.00
2136.43,-699.00
2139.22,-620.00
2142.00,-629.00
2144.77,-746.00
2147.55,-709.00
2150.32,-662.00
2153.10,-696.00
2155.87,-685.00
2158.64,-723.00
2161.40,-703.00
2164.17,-682.00
2166.93,-670.00
2169.69,-738.00
2172.45,-747.00
2175.21,-761.00
2177.96,-806.00
2180.71,-707.00
2183.46,-769.00
2186.21,-875.00
2188.96,-701.00
2191.70,-793.00
2194.45,-732.00
2197.19,-717.00
2199.93,-761.00
2202.66,-850.00
2205.40,-769.00
2208.13,-793.00
2210.86,-791.00
2213.59,-776.00
2216.32,-751.00
2219.04,-789.00
2221.76,-757.00
2224.49,-766.00
2227.20,-792.00
2229.92,-855.00
2232.64,-826.00
2235.35,-875.00
2238.06,-786.00
2240.77,-782.00
2243.48,-724.00
2246.18,-774.00
2248.89,-849.00
2251.59,-892.00
2254.29,-868.00
2256.99,-882.00
2259.68,-914.00
2262.37,-885.00
2265.07,-820.00
2267.76,-830.00
2270.44,-824.00
2273.13,-907.00
2275.81,-871.00
2278.50,-932.00
2281.18,-880.00
2283.85,-877.00
2286.53,-937.00
2289.20,-938.00
2291.88,-866.00
2294.55,-915.00
2297.21,-947.00
2299.88,-903.00
2302.55,-921.00
2305.21,-911.00
2307.87,-955.00
2310.53,-984.00
2313.18,-965.00
2315.84,-918.00
2318.49,-932.00
2321.14,-949.00
2323.79,-987.00
2326.44,-1019.00
2329.08,-1073.00
2331.73,-993.00
2334.37,-1157.00
2337.01,-972.00
2339.65,-1022.00
2342.28,-1031.00
2344.91,-1060.00
2347.55,-1010.00
2350.18,-936.00
2352.80,-970.00
2355.43,-1012.00
2358.05,-1041.00
2360.68,-1031.00
2363.30,-1041.00
2365.91,-1067.00
2368.53,-981.00
2371.15,-1029.00
2373.76,-1045.00
2376.37,-1037.00
2378.98,-1024.00
2381.58,-1060.00
2384.19,-1033.00
2386.79,-1041.00
2389.39,-1033.00
2391.99,-1045.00
2394.59,-1109.00
2397.19,-1054.00
2399.78,-1039.00
2402.37,-1006.00
2404.96,-1020.00
2407.55,-1040.00
2410.13,-1014.00
2412.72,-977.00
2415.30,-1094.00
2417.88,-978.00
2420.46,-1044.00
2423.04,-1073.00
2425.61,-928.00
2428.18,-1043.00
2430.75,-1111.00
2433.32,-1090.00
2435.89,-1059.00
2438.46,-1086.00
2441.02,-1052.00
2443.58,-1029.00
2446.14,-1107.00
2448.70,-1008.00
2451.25,-957.00
2453.81,-1018.00
2456.36,-1073.00
2458.91,-1027.00
2461.46,-1094.00
2464.00,-1054.00
2466.55,-1098.00
2469.09,-1061.00
2471.63,-1031.00
2474.17,-953.00
2476.71,-1025.00
2479.24,-976.00
2481.78,-1061.00
2484.31,-1043.00
2486.84,-1058.00
2489.36,-985.00
2491.89,-1021.00
2494.41,-1050.00
2496.94,-1092.00
2499.46,-921.00
2501.98,-951.00
2504.49,-988.00
2507.01,-1037.00
2509.52,-1027.00
2512.03,-968.00
2514.54,-962.00
2517.05,-1006.00
2519.55,-1027.00
2522.06,-1048.00
2524.56,-894.00
2527.06,-976.00
2529.55,-1035.00
2532.05,-963.00
2534.55,-1063.00
2537.04,-1025.00
2539.53,-1015.00
2542.02,-980.00
2544.50,-1016.00
2546.99,-978.00
2549.47,-1050.00
2551.95,-978.00
2554.43,-1012.00
2556.91,-943.00
2559.39,-986.00
2561.86,-936.00
2564.33,-1021.00
2566.80,-995.00
2569.27,-981.00
2571.74,-944.00
2574.20,-972.00
2576.67,-1012.00
2579.13,-945.00
2581.59,-978.00
2584.04,-1017.00
2586.50,-951.00
2588.95,-979.00
2591.40,-959.00
2593.85,-991.00
2596.30,-880.00
2598.75,-885.00
2601.19,-950.00
2603.64,-989.00
2606.08,-915.00
2608.52,-970.00
2610.95,-964.00
2613.39,-881.00
2615.82,-985.00
2618.26,-892.00
2620.69,-900.00
2623.11,-907.00
2625.54,-854.00
2627.96,-875.00
2630.39,-809.00
2632.81,-875.00
2635.23,-884.00
2637.65,-902.00
2640.06,-835.00
2642.47,-858.00
2644.89,-865.00
2647.30,-768.00
2649.71,-841.00
2652.11,-797.00
2654.52,-742.00
2656.92,-823.00
2659.32,-791.00
2661.72,-790.00
2664.12,-817.00
2666.51,-778.00
2668.91,-787.00
2671.30,-744.00
2673.69,-692.00
2676.08,-721.00
2678.46,-712.00
2680.85,-628.00
2683.23,-719.00
2685.61,-717.00
2687.99,-610.00
2690.37,-614.00
2692.75,-604.00
2695.12,-592.00
2697.49,-500.00
2699.86,-602.00
2702.23,-553.00
2704.60,-542.00
2706.97,-479.00
2709.33,-499.00
2711.69,-428.00
2714.05,-405.00
2716.41,-415.00
2718.76,-321.00
2721.12,-374.00
2723.47,-394.00
2725.82,-341.00
2728.17,-304.00
2730.52,-274.00
2732.86,-348.00
2735.21,-257.00
2737.55,-289.00
2739.89,-291.00
2742.23,-248.00
2744.57,-322.00
2746.90,-215.00
2749.23,-280.00
2751.57,-331.00
2753.90,-343.00
2756.22,-225.00
2758.55,-299.00
2760.87,-312.00
2763.20,-268.00
2765.52,-297.00
2767.84,-333.00
2770.15,-321.00
2772.47,-234.00
2774.78,-181.00
2777.09,-173.00
2779.40,-232.00
2781.71,-177.00
2784.02,-148.00
2786.32,-189.00
2788.63,-160.00
2790.93,-113.00
2793.23,-65.00
2795.53,-108.00
2797.82,13.00
2800.12,-46.00
2802.41,-36.00
2804.70,8.00
2806.99,-76.00
2809.28,21.00
2811.56,141.00
2813.85,187.00
2816.13,272.00
2818.41,251.00
2820.69,368.00
2822.96,485.00
2825.24,462.00
2827.51,459.00
2829.79,614.00
2832.05,637.00
2834.32,799.00
2836.59,807.00
2838.85,938.00
2841.12,1008.00
2843.38,1141.00
2845.64,1216.00
2847.90,1402.00
2850.15,1586.00
2852.41,1803.00
2854.66,1927.00
2856.91,2165.00
2859.16,2393.00
2861.41,2520.00
2863.65,2814.00
2865.90,2926.00
2868.14,3308.00
2870.38,3481.00
2872.62,3761.00
2874.85,4118.00
2877.09,4320.00
2879.32,4602.00
2881.55,4954.00
2883.78,5237.00
2886.01,5507.00
2888.24,5825.00
2890.46,6000.00
2892.69,6264.00
2894.91,6365.00
2897.13,6494.00
2899.35,6609.00
2901.56,6563.00
2903.78,6529.00
2905.99,6436.00
2908.20,6310.00
2910.41,6093.00
2912.62,5901.00
2914.82,5764.00
2917.03,5513.00
2919.23,5281.00
2921.43,5173.00
2923.63,4941.00
2925.83,4931.00
2928.02,4722.00
2930.22,4712.00
2932.41,4726.00
2934.60,4781.00
2936.79,4831.00
2938.98,4967.00
2941.16,5007.00
2943.35,5125.00
2945.53,5178.00
2947.71,5228.00
2949.89,5212.00
2952.06,5231.00
2954.24,5102.00
2956.41,5222.00
2958.58,5019.00
2960.75,4877.00
2962.92,4706.00
2965.09,4579.00
2967.25,4386.00
2969.42,4394.00
2971.58,4225.00
2973.74,4143.00
2975.90,4000.00
2978.05,3927.00
2980.21,3929.00
2982.36,3903.00
2984.51,3812.00
2986.66,3752.00
2988.81,3744.00
2990.96,3582.00
2993.10,3597.00
2995.25,3520.00
2997.39,3350.00
2999.53,3386.00
3001.66,3375.00
3003.80,3399.00
3005.94,3485.00
3008.07,3430.00
3010.20,3593.00
3012.33,3531.00
3014.46,3535.00
3016.58,3597.00
3018.71,3704.00
3020.83,3824.00
3022.95,3837.00
3025.07,3995.00
3027.19,4012.00
3029.31,4229.00
3031.42,4269.00
3033.53,4404.00
3035.64,4510.00
3037.75,4579.00
3039.86,4708.00
3041.97,4988.00
3044.07,5051.00
3046.17,5113.00
3048.28,5224.00
3050.38,5308.00
3052.47,5600.00
3054.57,5758.00
3056.66,5800.00
3058.76,5935.00
3060.85,6051.00
3062.94,6297.00
3065.02,6503.00
3067.11,6662.00
3069.20,6814.00
3071.28,6879.00
3073.36,7153.00
3075.44,7305.00
3077.52,7565.00
3079.59,7719.00
3081.67,7901.00
3083.74,8108.00
3085.81,8290.00
3087.88,8524.00
3089.95,8661.00
3092.01,8869.00
3094.08,9032.00
3096.14,9242.00
3098.20,9580.00
3100.26,9774.00
3102.32,9968.00
3104.38,10177.00
3106.43,10498.00
3108.48,10731.00
3110.54,10906.00
3112.59,11159.00
3114.63,11317.00
3116.68,11798.00
3118.72,11874.00
3120.77,12175.00
3122.81,12361.00
3124.85,12626.00
3126.89,12938.00
3128.92,13208.00
3130.96,13440.00
3132.99,13743.00
3135.02,13941.00
3137.05,14142.00
3139.08,14485.00
3141.11,14663.00
3143.13,15012.00
3145.16,15249.00
3147.18,15538.00
3149.20,15766.00
3151.22,16202.00
3153.23,16198.00
3155.25,16651.00
3157.26,16824.00
3159.28,17045.00
3161.29,17294.00
3163.29,17336.00
3165.30,17705.00
3167.31,17846.00
3169.31,18107.00
3171.31,18323.00
3173.31,18544.00
3175.31,18681.00
3177.31,18993.00
3179.31,19294.00
3181.30,19511.00
3183.29,19587.00
3185.28,19883.00
3187.27,20026.00
3189.26,19957.00
3191.25,20272.00
3193.23,20445.00
3195.21,20648.00
3197.19,20519.00
3199.17,20918.00
3201.15,20928.00
3203.13,21183.00
3205.10,21230.00
