ENLIGHTEN Version,1.6.8
Measurement ID,20190528-110550-348921-WP-00357
Serial Number,WP-00357
Label,Acetaminophen
Integration Time,10
Timestamp,2019-05-28 11:05:50.348921
Note,
Temperature,-99
CCD C0,801.1829833984375
CCD C1,0.12474799901247025
CCD C2,-2.2862799596623518e-05
CCD C3,4.907460215974879e-09
CCD Offset,0
CCD Gain,1.9
Laser Wavelength,785.0
Laser Enable,False
Laser Power,100.0
Laser Temperature,-99
Pixel Count,1952

Wavenumber,Processed
257.31,0.00
259.25,0.00
261.19,0.00
263.13,317.00
265.07,-486.00
267.01,343.00
268.95,-309.00
270.88,392.00
272.82,530.00
274.75,183.00
276.68,558.00
278.61,-59.00
280.54,-628.00
282.46,-560.00
284.39,386.00
286.31,-184.00
288.24,336.00
290.16,-777.00
292.08,-485.00
294.00,471.00
295.92,-497.00
297.83,68.00
299.75,242.00
301.66,-627.00
303.58,-125.00
305.49,-140.00
307.40,706.00
309.31,647.00
311.22,253.00
313.12,551.00
315.03,206.00
316.93,-264.00
318.83,-150.00
320.73,-47.00
322.63,-474.00
324.53,-294.00
326.43,-401.00
328.33,517.00
330.22,-102.00
332.12,-28.00
334.01,444.00
335.90,-267.00
337.79,489.00
339.68,-67.00
341.57,-140.00
343.45,209.00
345.34,-4.00
347.22,-35.00
349.10,-4.00
350.98,-348.00
352.86,813.00
354.74,172.00
356.62,1312.00
358.50,785.00
360.37,1009.00
362.24,867.00
364.12,739.00
365.99,1535.00
367.86,1615.00
369.73,2450.00
371.59,2863.00
373.46,3233.00
375.33,3954.00
377.19,4427.00
379.05,5325.00
380.91,5498.00
382.77,7265.00
384.63,8261.00
386.49,10187.00
388.35,13271.00
390.20,12933.00
392.06,16033.00
393.91,14461.00
395.76,16309.00
397.61,14229.00
399.46,16028.00
401.31,13244.00
403.15,14005.00
405.00,13529.00
406.84,12599.00
408.69,11923.00
410.53,12962.00
412.37,10366.00
414.21,11531.00
416.05,11023.00
417.88,11073.00
419.72,11121.00
421.55,9829.00
423.39,8939.00
425.22,9559.00
427.05,9674.00
428.88,8951.00
430.71,9168.00
432.54,10132.00
434.36,10367.00
436.19,9249.00
438.01,10145.00
439.83,10616.00
441.65,9405.00
443.48,10909.00
445.29,9677.00
447.11,11578.00
448.93,10353.00
450.74,10373.00
452.56,10560.00
454.37,10860.00
456.18,10925.00
457.99,12370.00
459.80,10765.00
461.61,13315.00
463.42,12999.00
465.23,11810.00
467.03,11595.00
468.83,12708.00
470.64,11693.00
472.44,13416.00
474.24,11977.00
476.04,12122.00
477.84,12114.00
479.63,11386.00
481.43,10952.00
483.22,10463.00
485.02,10690.00
486.81,11540.00
488.60,11496.00
490.39,10393.00
492.18,10633.00
493.96,11664.00
495.75,11058.00
497.54,10811.00
499.32,11716.00
501.10,12969.00
502.88,13541.00
504.67,12316.00
506.45,13165.00
508.22,12018.00
510.00,12890.00
511.78,11873.00
513.55,11412.00
515.33,11505.00
517.10,11880.00
518.87,11065.00
520.64,10906.00
522.41,11026.00
524.18,10752.00
525.94,10905.00
527.71,10699.00
529.47,10191.00
531.24,10949.00
533.00,9327.00
534.76,10257.00
536.52,9856.00
538.28,10079.00
540.04,10897.00
541.80,9335.00
543.55,10904.00
545.31,10202.00
547.06,10497.00
548.81,10530.00
550.56,10187.00
552.31,9371.00
554.06,10690.00
555.81,11482.00
557.56,9552.00
559.30,10531.00
561.05,10676.00
562.79,11214.00
564.53,11318.00
566.28,11205.00
568.02,12288.00
569.75,11022.00
571.49,11203.00
573.23,9572.00
574.97,12542.00
576.70,11612.00
578.43,11870.00
580.17,9839.00
581.90,11713.00
583.63,12487.00
585.36,12225.00
587.09,11862.00
588.81,12688.00
590.54,12317.00
592.26,11390.00
593.99,13042.00
595.71,13203.00
597.43,13701.00
599.15,13371.00
600.87,13908.00
602.59,15285.00
604.31,13558.00
606.02,14649.00
607.74,14332.00
609.45,16032.00
611.17,14161.00
612.88,14905.00
614.59,14949.00
616.30,15111.00
618.01,15269.00
619.71,16345.00
621.42,15353.00
623.13,16120.00
624.83,15551.00
626.53,17632.00
628.24,17654.00
629.94,17920.00
631.64,17634.00
633.34,17978.00
635.04,17390.00
636.73,18360.00
638.43,17289.00
640.12,18362.00
641.82,19739.00
643.51,22252.00
645.20,21183.00
646.89,24503.00
648.58,26275.00
650.27,27560.00
651.96,26829.00
653.65,26638.00
655.33,25544.00
657.02,26153.00
658.70,24679.00
660.38,24495.00
662.06,20058.00
663.74,19488.00
665.42,18643.00
667.10,17420.00
668.78,17575.00
670.45,17980.00
672.13,17050.00
673.80,16786.00
675.48,14733.00
677.15,15734.00
678.82,15169.00
680.49,16875.00
682.16,15653.00
683.83,16850.00
685.49,15903.00
687.16,15016.00
688.82,16067.00
690.49,14905.00
692.15,14625.00
693.81,14972.00
695.47,15052.00
697.13,15770.00
698.79,14770.00
700.45,16283.00
702.11,15163.00
703.76,16538.00
705.42,17359.00
707.07,17159.00
708.72,16968.00
710.37,19191.00
712.02,18524.00
713.67,17774.00
715.32,16770.00
716.97,19550.00
718.62,16586.00
720.26,16198.00
721.91,15371.00
723.55,15460.00
725.19,14549.00
726.84,14024.00
728.48,15322.00
730.12,15438.00
731.75,14433.00
733.39,15187.00
735.03,12943.00
736.66,14599.00
738.30,14618.00
739.93,14780.00
741.57,12284.00
743.20,12311.00
744.83,11832.00
746.46,14865.00
748.09,12595.00
749.71,12357.00
751.34,12526.00
752.97,13232.00
754.59,13009.00
756.22,11550.00
757.84,12044.00
759.46,11283.00
761.08,11414.00
762.70,12314.00
764.32,11469.00
765.94,11779.00
767.56,11706.00
769.17,11845.00
770.79,13739.00
772.40,12506.00
774.01,12704.00
775.63,10681.00
777.24,11219.00
778.85,13383.00
780.46,12357.00
782.07,12824.00
783.67,12876.00
785.28,14101.00
786.88,16555.00
788.49,17702.00
790.09,18263.00
791.70,22593.00
793.30,22442.00
794.90,25184.00
796.50,28025.00
798.10,27219.00
799.69,27645.00
801.29,29739.00
802.89,28103.00
804.48,25912.00
806.08,24855.00
807.67,23863.00
809.26,20814.00
810.85,21796.00
812.44,19468.00
814.03,18788.00
815.62,18977.00
817.21,19028.00
818.79,18430.00
820.38,16594.00
821.96,16589.00
823.55,18132.00
825.13,15806.00
826.71,18764.00
828.29,18301.00
829.87,18238.00
831.45,19277.00
833.03,18503.00
834.61,18598.00
836.18,18298.00
837.76,19103.00
839.33,19523.00
840.91,19377.00
842.48,20781.00
844.05,20400.00
845.62,21889.00
847.19,23079.00
848.76,26288.00
850.33,26926.00
851.90,32326.00
853.46,33077.00
855.03,38548.00
856.59,39827.00
858.15,44674.00
859.72,43309.00
861.28,46199.00
862.84,42254.00
864.40,42818.00
865.96,39206.00
867.52,37195.00
869.07,32799.00
870.63,27794.00
872.18,25707.00
873.74,24519.00
875.29,21778.00
876.84,21080.00
878.40,19423.00
879.95,18011.00
881.50,17587.00
883.04,16707.00
884.59,14521.00
886.14,15676.00
887.69,14013.00
889.23,14474.00
890.78,15211.00
892.32,14284.00
893.86,13940.00
895.40,13062.00
896.94,13004.00
898.48,13525.00
900.02,12511.00
901.56,14485.00
903.10,12162.00
904.63,13558.00
906.17,13172.00
907.70,14962.00
909.24,13253.00
910.77,14445.00
912.30,12124.00
913.83,14363.00
915.36,13774.00
916.89,14377.00
918.42,13481.00
919.95,14280.00
921.48,13693.00
923.00,15092.00
924.53,13488.00
926.05,13987.00
927.57,13486.00
929.10,13563.00
930.62,12836.00
932.14,14321.00
933.66,14266.00
935.18,13765.00
936.70,13325.00
938.21,14079.00
939.73,13712.00
941.24,14075.00
942.76,13565.00
944.27,14057.00
945.79,13574.00
947.30,14651.00
948.81,14530.00
950.32,14843.00
951.83,14360.00
953.34,14425.00
954.84,15550.00
956.35,14658.00
957.86,14986.00
959.36,14203.00
960.87,14728.00
962.37,14129.00
963.87,15351.00
965.37,16692.00
966.88,17907.00
968.38,18259.00
969.87,17833.00
971.37,18071.00
972.87,18934.00
974.37,17046.00
975.86,17696.00
977.36,16864.00
978.85,16098.00
980.35,17372.00
981.84,15839.00
983.33,15432.00
984.82,14839.00
986.31,14182.00
987.80,13460.00
989.29,13808.00
990.77,14780.00
992.26,13443.00
993.75,12975.00
995.23,13363.00
996.72,12846.00
998.20,13490.00
999.68,12331.00
1001.16,12713.00
1002.64,13925.00
1004.12,12360.00
1005.60,14809.00
1007.08,13028.00
1008.56,13689.00
1010.04,14065.00
1011.51,13543.00
1012.99,14829.00
1014.46,14371.00
1015.93,14291.00
1017.41,14385.00
1018.88,14593.00
1020.35,12902.00
1021.82,13477.00
1023.29,13903.00
1024.76,13057.00
1026.23,12602.00
1027.69,12734.00
1029.16,13168.00
1030.62,11068.00
1032.09,11377.00
1033.55,12048.00
1035.02,12807.00
1036.48,13021.00
1037.94,10802.00
1039.40,12469.00
1040.86,12061.00
1042.32,10982.00
1043.78,11040.00
1045.23,11385.00
1046.69,12279.00
1048.15,11736.00
1049.60,10865.00
1051.05,9940.00
1052.51,11261.00
1053.96,11627.00
1055.41,10751.00
1056.86,11007.00
1058.31,10474.00
1059.76,10936.00
1061.21,10940.00
1062.66,10288.00
1064.10,10108.00
1065.55,10724.00
1067.00,10767.00
1068.44,10730.00
1069.88,10845.00
1071.33,11193.00
1072.77,10459.00
1074.21,10870.00
1075.65,10514.00
1077.09,11641.00
1078.53,10973.00
1079.97,10982.00
1081.41,11038.00
1082.84,10054.00
1084.28,10658.00
1085.71,11699.00
1087.15,10115.00
1088.58,10652.00
1090.02,10375.00
1091.45,11994.00
1092.88,12472.00
1094.31,12563.00
1095.74,11099.00
1097.17,12918.00
1098.60,12958.00
1100.02,13301.00
1101.45,11851.00
1102.88,14113.00
1104.30,13298.00
1105.73,13297.00
1107.15,12884.00
1108.57,14144.00
1109.99,14428.00
1111.42,14118.00
1112.84,13504.00
1114.26,13372.00
1115.68,12736.00
1117.09,14034.00
1118.51,12712.00
1119.93,13018.00
1121.34,12091.00
1122.76,12921.00
1124.17,13186.00
1125.59,13240.00
1127.00,12391.00
1128.41,12613.00
1129.82,11786.00
1131.24,13082.00
1132.65,11257.00
1134.05,12756.00
1135.46,11726.00
1136.87,13513.00
1138.28,12281.00
1139.68,12147.00
1141.09,12063.00
1142.50,12312.00
1143.90,13282.00
1145.30,11791.00
1146.71,12023.00
1148.11,12910.00
1149.51,12634.00
1150.91,13377.00
1152.31,13145.00
1153.71,12683.00
1155.11,14368.00
1156.50,15416.00
1157.90,15959.00
1159.30,16290.00
1160.69,16750.00
1162.08,19722.00
1163.48,19606.00
1164.87,19967.00
1166.26,21295.00
1167.66,22764.00
1169.05,22210.00
1170.44,22697.00
1171.83,21790.00
1173.21,22402.00
1174.60,23396.00
1175.99,22669.00
1177.38,23124.00
1178.76,22429.00
1180.15,21906.00
1181.53,21853.00
1182.92,20803.00
1184.30,19688.00
1185.68,19401.00
1187.06,18071.00
1188.44,15666.00
1189.82,15180.00
1191.20,15834.00
1192.58,16910.00
1193.96,15401.00
1195.34,16599.00
1196.71,14879.00
1198.09,15366.00
1199.46,13905.00
1200.84,14460.00
1202.21,14851.00
1203.58,16255.00
1204.96,15427.00
1206.33,16202.00
1207.70,16826.00
1209.07,17048.00
1210.44,16568.00
1211.81,16906.00
1213.17,17472.00
1214.54,17596.00
1215.91,17607.00
1217.27,19726.00
1218.64,19206.00
1220.00,21071.00
1221.37,20860.00
1222.73,23132.00
1224.09,23631.00
1225.45,24085.00
1226.82,26478.00
1228.18,28455.00
1229.54,28628.00
1230.89,31463.00
1232.25,32766.00
1233.61,32175.00
1234.97,32733.00
1236.32,33874.00
1237.68,34982.00
1239.03,35162.00
1240.39,35146.00
1241.74,35365.00
1243.09,35359.00
1244.45,35095.00
1245.80,36502.00
1247.15,36604.00
1248.50,34115.00
1249.85,35142.00
1251.20,33063.00
1252.54,29912.00
1253.89,29153.00
1255.24,28535.00
1256.58,28267.00
1257.93,26724.00
1259.27,24233.00
1260.62,24626.00
1261.96,23529.00
1263.30,24126.00
1264.64,23957.00
1265.98,23561.00
1267.33,21854.00
1268.67,23763.00
1270.00,24050.00
1271.34,23206.00
1272.68,23453.00
1274.02,22839.00
1275.35,23621.00
1276.69,23528.00
1278.03,22871.00
1279.36,22491.00
1280.69,21675.00
1282.03,22876.00
1283.36,22538.00
1284.69,21901.00
1286.02,22537.00
1287.35,22917.00
1288.68,20584.00
1290.01,21166.00
1291.34,20406.00
1292.67,20674.00
1294.00,20293.00
1295.32,19696.00
1296.65,19297.00
1297.97,19644.00
1299.30,18050.00
1300.62,18666.00
1301.94,16377.00
1303.27,17802.00
1304.59,18458.00
1305.91,17461.00
1307.23,17784.00
1308.55,18631.00
1309.87,18987.00
1311.19,22009.00
1312.51,20919.00
1313.82,22991.00
1315.14,23509.00
1316.46,25576.00
1317.77,28330.00
1319.09,27122.00
1320.40,27253.00
1321.72,29964.00
1323.03,29706.00
1324.34,30413.00
1325.65,29978.00
1326.96,33096.00
1328.27,32434.00
1329.58,32946.00
1330.89,33023.00
1332.20,33562.00
1333.51,30877.00
1334.82,32256.00
1336.12,29991.00
1337.43,31059.00
1338.73,27245.00
1340.04,28948.00
1341.34,29710.00
1342.65,26731.00
1343.95,25339.00
1345.25,24616.00
1346.55,23204.00
1347.85,23639.00
1349.15,22427.00
1350.45,21483.00
1351.75,21309.00
1353.05,21419.00
1354.35,20462.00
1355.65,20901.00
1356.94,20840.00
1358.24,21310.00
1359.53,20090.00
1360.83,21021.00
1362.12,21013.00
1363.42,21950.00
1364.71,21625.00
1366.00,23628.00
1367.29,23134.00
1368.58,24167.00
1369.87,22193.00
1371.16,26137.00
1372.45,22191.00
1373.74,24030.00
1375.03,22513.00
1376.32,23664.00
1377.60,23504.00
1378.89,24605.00
1380.17,22618.00
1381.46,24699.00
1382.74,23077.00
1384.03,21375.00
1385.31,21555.00
1386.59,19837.00
1387.87,20978.00
1389.15,21817.00
1390.43,20634.00
1391.71,19969.00
1392.99,18123.00
1394.27,19129.00
1395.55,17434.00
1396.83,17760.00
1398.11,17228.00
1399.38,17565.00
1400.66,16431.00
1401.93,16636.00
1403.21,16448.00
1404.48,16428.00
1405.75,14894.00
1407.03,16648.00
1408.30,16491.00
1409.57,16455.00
1410.84,14795.00
1412.11,16162.00
1413.38,14340.00
1414.65,15138.00
1415.92,15564.00
1417.19,15432.00
1418.46,13684.00
1419.72,15928.00
1420.99,14889.00
1422.25,15333.00
1423.52,15580.00
1424.78,16397.00
1426.05,16555.00
1427.31,14672.00
1428.57,17071.00
1429.84,16889.00
1431.10,16223.00
1432.36,16092.00
1433.62,16956.00
1434.88,16469.00
1436.14,16046.00
1437.40,18390.00
1438.65,16963.00
1439.91,17049.00
1441.17,17501.00
1442.43,18115.00
1443.68,15889.00
1444.94,16257.00
1446.19,16263.00
1447.44,18390.00
1448.70,17616.00
1449.95,16466.00
1451.20,17630.00
1452.46,16079.00
1453.71,16037.00
1454.96,16913.00
1456.21,16812.00
1457.46,17921.00
1458.71,17273.00
1459.95,17457.00
1461.20,17233.00
1462.45,17887.00
1463.70,16585.00
1464.94,16631.00
1466.19,16967.00
1467.43,16156.00
1468.68,15911.00
1469.92,15576.00
1471.16,15453.00
1472.41,16266.00
1473.65,15551.00
1474.89,15634.00
1476.13,15994.00
1477.37,15679.00
1478.61,16117.00
1479.85,15485.00
1481.09,14917.00
1482.33,14819.00
1483.57,14336.00
1484.80,14424.00
1486.04,16484.00
1487.28,14906.00
1488.51,15614.00
1489.75,14630.00
1490.98,15048.00
1492.21,15267.00
1493.45,15588.00
1494.68,16895.00
1495.91,16588.00
1497.14,16117.00
1498.37,15352.00
1499.61,15085.00
1500.84,16347.00
1502.06,14697.00
1503.29,16722.00
1504.52,16234.00
1505.75,16463.00
1506.98,16285.00
1508.20,16997.00
1509.43,16274.00
1510.66,17090.00
1511.88,15458.00
1513.11,16483.00
1514.33,16827.00
1515.55,15900.00
1516.78,16487.00
1518.00,16274.00
1519.22,16484.00
1520.44,16802.00
1521.66,15371.00
1522.88,15895.00
1524.10,15911.00
1525.32,16682.00
1526.54,15862.00
1527.76,16099.00
1528.98,15298.00
1530.19,15058.00
1531.41,14841.00
1532.63,15231.00
1533.84,15496.00
1535.06,15131.00
1536.27,14480.00
1537.48,14427.00
1538.70,15666.00
1539.91,16607.00
1541.12,14667.00
1542.33,15037.00
1543.55,15605.00
1544.76,17845.00
1545.97,16458.00
1547.18,16870.00
1548.39,16890.00
1549.59,17616.00
1550.80,19519.00
1552.01,17625.00
1553.22,18880.00
1554.42,18473.00
1555.63,19666.00
1556.84,18279.00
1558.04,19881.00
1559.24,19093.00
1560.45,19137.00
1561.65,19935.00
1562.86,21784.00
1564.06,21315.00
1565.26,21038.00
1566.46,20232.00
1567.66,19855.00
1568.86,19677.00
1570.06,20888.00
1571.26,18619.00
1572.46,19287.00
1573.66,18282.00
1574.86,19364.00
1576.05,18652.00
1577.25,20178.00
1578.45,18589.00
1579.64,17180.00
1580.84,17460.00
1582.03,17593.00
1583.23,16807.00
1584.42,16105.00
1585.61,16444.00
1586.81,17280.00
1588.00,15737.00
1589.19,16641.00
1590.38,17134.00
1591.57,18155.00
1592.76,17792.00
1593.95,16873.00
1595.14,19166.00
1596.33,19254.00
1597.52,18804.00
1598.71,19979.00
1599.90,21303.00
1601.08,22467.00
1602.27,23919.00
1603.45,23638.00
1604.64,23497.00
1605.83,24931.00
1607.01,25485.00
1608.19,27097.00
1609.38,26428.00
1610.56,28214.00
1611.74,27301.00
1612.92,27053.00
1614.11,28718.00
1615.29,29413.00
1616.47,29260.00
1617.65,29458.00
1618.83,28697.00
1620.01,27992.00
1621.18,27982.00
1622.36,27969.00
1623.54,28464.00
1624.72,25761.00
1625.89,27747.00
1627.07,27218.00
1628.25,25479.00
1629.42,25314.00
1630.60,25359.00
1631.77,25169.00
1632.94,25750.00
1634.12,24913.00
1635.29,26207.00
1636.46,25408.00
1637.63,24666.00
1638.80,25946.00
1639.98,23680.00
1641.15,26381.00
1642.32,25483.00
1643.49,25203.00
1644.65,25666.00
1645.82,25085.00
1646.99,24001.00
1648.16,23897.00
1649.33,25198.00
1650.49,24621.00
1651.66,25580.00
1652.82,24107.00
1653.99,23497.00
1655.15,22965.00
1656.32,22055.00
1657.48,21663.00
1658.65,21581.00
1659.81,21909.00
1660.97,21554.00
1662.13,20509.00
1663.29,20031.00
1664.45,19638.00
1665.62,17466.00
1666.78,19004.00
1667.94,17796.00
1669.09,18788.00
1670.25,16453.00
1671.41,16989.00
1672.57,15793.00
1673.73,15529.00
1674.88,14848.00
1676.04,13513.00
1677.20,13683.00
1678.35,13137.00
1679.51,13091.00
1680.66,12884.00
1681.82,11775.00
1682.97,12151.00
1684.12,11306.00
1685.27,10574.00
1686.43,11249.00
1687.58,9544.00
1688.73,10292.00
1689.88,9618.00
1691.03,10767.00
1692.18,8953.00
1693.33,9703.00
1694.48,10742.00
1695.63,10100.00
1696.78,9102.00
1697.93,9714.00
1699.07,10094.00
1700.22,9357.00
1701.37,8593.00
1702.51,10110.00
1703.66,9049.00
1704.80,10292.00
1705.95,9440.00
1707.09,8949.00
1708.24,9155.00
1709.38,10115.00
1710.52,8932.00
1711.67,8873.00
1712.81,8750.00
1713.95,10188.00
1715.09,8968.00
1716.23,9776.00
1717.37,8995.00
1718.51,8248.00
1719.65,8561.00
1720.79,9044.00
1721.93,9246.00
1723.07,9375.00
1724.20,8846.00
1725.34,9896.00
1726.48,10020.00
1727.62,9456.00
1728.75,9140.00
1729.89,9013.00
1731.02,8302.00
1732.16,9537.00
1733.29,7699.00
1734.43,8541.00
1735.56,9098.00
1736.69,8958.00
1737.82,10142.00
1738.96,8663.00
1740.09,7891.00
1741.22,9257.00
1742.35,8978.00
1743.48,8451.00
1744.61,9920.00
1745.74,9374.00
1746.87,8683.00
1748.00,9596.00
1749.13,8847.00
1750.25,10665.00
1751.38,9352.00
1752.51,9437.00
1753.64,9355.00
1754.76,9491.00
1755.89,8196.00
1757.01,9173.00
1758.14,8761.00
1759.26,8769.00
1760.39,8942.00
1761.51,8321.00
1762.63,8215.00
1763.76,8282.00
1764.88,8518.00
1766.00,8846.00
1767.12,9029.00
1768.24,9076.00
1769.37,8118.00
1770.49,8800.00
1771.61,8296.00
1772.73,9223.00
1773.85,8535.00
1774.96,9148.00
1776.08,8730.00
1777.20,7984.00
1778.32,8843.00
1779.44,9586.00
1780.55,8451.00
1781.67,6642.00
1782.78,7679.00
1783.90,9236.00
1785.01,9126.00
1786.13,9246.00
1787.24,7995.00
1788.36,9146.00
1789.47,9192.00
1790.58,8316.00
1791.70,8189.00
1792.81,8660.00
1793.92,7706.00
1795.03,8436.00
1796.14,9192.00
1797.26,8181.00
1798.37,8305.00
1799.48,9038.00
1800.58,7926.00
1801.69,8010.00
1802.80,7174.00
1803.91,8941.00
1805.02,7015.00
1806.13,8593.00
1807.23,8151.00
1808.34,8532.00
1809.45,7629.00
1810.55,7780.00
1811.66,7665.00
1812.76,8546.00
1813.87,7980.00
1814.97,7570.00
1816.08,7105.00
1817.18,7949.00
1818.28,8445.00
1819.39,7157.00
1820.49,7674.00
1821.59,8701.00
1822.69,7084.00
1823.79,7225.00
1824.90,8257.00
1826.00,6684.00
1827.10,7888.00
1828.20,6116.00
1829.30,7732.00
1830.39,7315.00
1831.49,7859.00
1832.59,7662.00
1833.69,7787.00
1834.79,7789.00
1835.88,7480.00
1836.98,7717.00
1838.08,7149.00
1839.17,7081.00
1840.27,6990.00
1841.36,6598.00
1842.46,6828.00
1843.55,6862.00
1844.65,6312.00
1845.74,6826.00
1846.83,7302.00
1847.93,6500.00
1849.02,6638.00
1850.11,6732.00
1851.20,6558.00
1852.30,6361.00
1853.39,7195.00
1854.48,5734.00
1855.57,7327.00
1856.66,6556.00
1857.75,5788.00
1858.84,6864.00
1859.93,6274.00
1861.01,6502.00
1862.10,6163.00
