ENLIGHTEN Version,1.6.8
Measurement ID,20190528-110037-508483-WP-00357
Serial Number,WP-00357
Label,Acetone
Integration Time,7
Timestamp,2019-05-28 11:00:37.508483
Note,
Temperature,-99
CCD C0,801.1829833984375
CCD C1,0.12474799901247025
CCD C2,-2.2862799596623518e-05
CCD C3,4.907460215974879e-09
CCD Offset,0
CCD Gain,1.9
Laser Wavelength,785.0
Laser Enable,False
Laser Power,100.0
Laser Temperature,-99
Pixel Count,1952

Wavenumber,Processed
257.31,0.00
259.25,0.00
261.19,0.00
263.13,282.00
265.07,-539.00
267.01,235.00
268.95,-726.00
270.88,-909.00
272.82,203.00
274.75,-160.00
276.68,-265.00
278.61,-309.00
280.54,-192.00
282.46,-735.00
284.39,-8.00
286.31,-472.00
288.24,-239.00
290.16,429.00
292.08,-772.00
294.00,15.00
295.92,-793.00
297.83,-530.00
299.75,767.00
301.66,-239.00
303.58,-648.00
305.49,96.00
307.40,-445.00
309.31,-412.00
311.22,-221.00
313.12,205.00
315.03,193.00
316.93,-862.00
318.83,219.00
320.73,-652.00
322.63,-653.00
324.53,-152.00
326.43,-244.00
328.33,-439.00
330.22,-9.00
332.12,481.00
334.01,-39.00
335.90,-601.00
337.79,347.00
339.68,-94.00
341.57,-375.00
343.45,-771.00
345.34,-406.00
347.22,-504.00
349.10,-502.00
350.98,64.00
352.86,160.00
354.74,-24.00
356.62,-683.00
358.50,-497.00
360.37,-1147.00
362.24,-213.00
364.12,342.00
365.99,-797.00
367.86,-152.00
369.73,250.00
371.59,75.00
373.46,145.00
375.33,-184.00
377.19,380.00
379.05,519.00
380.91,-54.00
382.77,-89.00
384.63,1537.00
386.49,676.00
388.35,1411.00
390.20,552.00
392.06,1809.00
393.91,1206.00
395.76,2153.00
397.61,1166.00
399.46,1434.00
401.31,508.00
403.15,633.00
405.00,504.00
406.84,691.00
408.69,405.00
410.53,1026.00
412.37,928.00
414.21,816.00
416.05,170.00
417.88,378.00
419.72,-105.00
421.55,439.00
423.39,155.00
425.22,-374.00
427.05,1201.00
428.88,-124.00
430.71,680.00
432.54,87.00
434.36,10.00
436.19,-1021.00
438.01,365.00
439.83,-335.00
441.65,-162.00
443.48,-128.00
445.29,151.00
447.11,498.00
448.93,608.00
450.74,-178.00
452.56,543.00
454.37,873.00
456.18,410.00
457.99,450.00
459.80,603.00
461.61,447.00
463.42,325.00
465.23,1142.00
467.03,738.00
468.83,558.00
470.64,591.00
472.44,1817.00
474.24,138.00
476.04,511.00
477.84,1284.00
479.63,918.00
481.43,1707.00
483.22,1453.00
485.02,967.00
486.81,2393.00
488.60,1734.00
490.39,1941.00
492.18,1448.00
493.96,1331.00
495.75,2003.00
497.54,1932.00
499.32,1610.00
501.10,1649.00
502.88,1850.00
504.67,1720.00
506.45,1530.00
508.22,2856.00
510.00,1641.00
511.78,1708.00
513.55,2063.00
515.33,2430.00
517.10,2749.00
518.87,3275.00
520.64,3069.00
522.41,4729.00
524.18,4224.00
525.94,4221.00
527.71,6325.00
529.47,5658.00
531.24,5765.00
533.00,5419.00
534.76,4310.00
536.52,3277.00
538.28,2971.00
540.04,3082.00
541.80,2024.00
543.55,2149.00
545.31,1430.00
547.06,1065.00
548.81,504.00
550.56,591.00
552.31,779.00
554.06,168.00
555.81,642.00
557.56,936.00
559.30,-211.00
561.05,803.00
562.79,821.00
564.53,637.00
566.28,-744.00
568.02,630.00
569.75,-252.00
571.49,195.00
573.23,435.00
574.97,728.00
576.70,403.00
578.43,28.00
580.17,64.00
581.90,194.00
583.63,-139.00
585.36,169.00
587.09,-712.00
588.81,9.00
590.54,-145.00
592.26,1116.00
593.99,182.00
595.71,179.00
597.43,170.00
599.15,271.00
600.87,-199.00
602.59,-239.00
604.31,-336.00
606.02,-56.00
607.74,251.00
609.45,352.00
611.17,801.00
612.88,-461.00
614.59,291.00
616.30,560.00
618.01,523.00
619.71,-437.00
621.42,-302.00
623.13,553.00
624.83,329.00
626.53,213.00
628.24,611.00
629.94,-103.00
631.64,-87.00
633.34,28.00
635.04,218.00
636.73,144.00
638.43,645.00
640.12,316.00
641.82,-144.00
643.51,51.00
645.20,267.00
646.89,-501.00
648.58,51.00
650.27,502.00
651.96,-379.00
653.65,416.00
655.33,190.00
657.02,205.00
658.70,-569.00
660.38,319.00
662.06,-100.00
663.74,-381.00
665.42,196.00
667.10,433.00
668.78,-45.00
670.45,-1.00
672.13,-165.00
673.80,107.00
675.48,180.00
677.15,850.00
678.82,298.00
680.49,166.00
682.16,241.00
683.83,500.00
685.49,426.00
687.16,184.00
688.82,418.00
690.49,293.00
692.15,515.00
693.81,78.00
695.47,-294.00
697.13,250.00
698.79,-286.00
700.45,414.00
702.11,839.00
703.76,-94.00
705.42,-385.00
707.07,819.00
708.72,551.00
710.37,-114.00
712.02,-9.00
713.67,569.00
715.32,-61.00
716.97,-93.00
718.62,-248.00
720.26,301.00
721.91,26.00
723.55,269.00
725.19,591.00
726.84,296.00
728.48,1147.00
730.12,557.00
731.75,827.00
733.39,185.00
735.03,37.00
736.66,771.00
738.30,331.00
739.93,314.00
741.57,955.00
743.20,882.00
744.83,665.00
746.46,453.00
748.09,550.00
749.71,1590.00
751.34,887.00
752.97,531.00
754.59,2307.00
756.22,1727.00
757.84,2072.00
759.46,1878.00
761.08,2638.00
762.70,2371.00
764.32,2896.00
765.94,4372.00
767.56,5852.00
769.17,5434.00
770.79,7163.00
772.40,9137.00
774.01,12538.00
775.63,15523.00
777.24,20029.00
778.85,25105.00
780.46,29708.00
782.07,35882.00
783.67,39452.00
785.28,42657.00
786.88,42914.00
788.49,42717.00
790.09,40982.00
791.70,36782.00
793.30,32060.00
794.90,25719.00
796.50,20326.00
798.10,17978.00
799.69,13017.00
801.29,9582.00
802.89,7446.00
804.48,6646.00
806.08,4906.00
807.67,3288.00
809.26,3168.00
810.85,3069.00
812.44,3323.00
814.03,2335.00
815.62,2470.00
817.21,2005.00
818.79,2664.00
820.38,2086.00
821.96,1261.00
823.55,921.00
825.13,1581.00
826.71,1729.00
828.29,1026.00
829.87,1218.00
831.45,455.00
833.03,1673.00
834.61,1040.00
836.18,1298.00
837.76,977.00
839.33,1165.00
840.91,1675.00
842.48,1043.00
844.05,1091.00
845.62,504.00
847.19,358.00
848.76,906.00
850.33,1202.00
851.90,1296.00
853.46,867.00
855.03,1167.00
856.59,1097.00
858.15,385.00
859.72,410.00
861.28,1012.00
862.84,427.00
864.40,925.00
865.96,-297.00
867.52,673.00
869.07,238.00
870.63,1164.00
872.18,597.00
873.74,419.00
875.29,1065.00
876.84,1487.00
878.40,592.00
879.95,354.00
881.50,923.00
883.04,1619.00
884.59,505.00
886.14,1370.00
887.69,1432.00
889.23,1037.00
890.78,1261.00
892.32,1108.00
893.86,1272.00
895.40,1466.00
896.94,2106.00
898.48,1224.00
900.02,2014.00
901.56,1285.00
903.10,1925.00
904.63,1569.00
906.17,1417.00
907.70,1419.00
909.24,1316.00
910.77,874.00
912.30,997.00
913.83,2130.00
915.36,1596.00
916.89,1096.00
918.42,1056.00
919.95,1335.00
921.48,1421.00
923.00,586.00
924.53,783.00
926.05,856.00
927.57,862.00
929.10,1028.00
930.62,301.00
932.14,906.00
933.66,1063.00
935.18,657.00
936.70,940.00
938.21,504.00
939.73,998.00
941.24,728.00
942.76,578.00
944.27,905.00
945.79,160.00
947.30,-327.00
948.81,172.00
950.32,223.00
951.83,491.00
953.34,960.00
954.84,-38.00
956.35,1596.00
957.86,79.00
959.36,675.00
960.87,63.00
962.37,1153.00
963.87,710.00
965.37,221.00
966.88,-155.00
968.38,650.00
969.87,341.00
971.37,176.00
972.87,-114.00
974.37,542.00
975.86,1044.00
977.36,-752.00
978.85,174.00
980.35,-441.00
981.84,825.00
983.33,797.00
984.82,198.00
986.31,934.00
987.80,916.00
989.29,-174.00
990.77,-393.00
992.26,340.00
993.75,20.00
995.23,-97.00
996.72,627.00
998.20,-72.00
999.68,639.00
1001.16,311.00
1002.64,39.00
1004.12,876.00
1005.60,94.00
1007.08,699.00
1008.56,672.00
1010.04,-192.00
1011.51,118.00
1012.99,617.00
1014.46,-474.00
1015.93,-157.00
1017.41,-236.00
1018.88,-138.00
1020.35,636.00
1021.82,516.00
1023.29,266.00
1024.76,1153.00
1026.23,368.00
1027.69,759.00
1029.16,338.00
1030.62,74.00
1032.09,250.00
1033.55,220.00
1035.02,-174.00
1036.48,-297.00
1037.94,120.00
1039.40,515.00
1040.86,346.00
1042.32,212.00
1043.78,205.00
1045.23,997.00
1046.69,633.00
1048.15,1478.00
1049.60,860.00
1051.05,1600.00
1052.51,1430.00
1053.96,1552.00
1055.41,1188.00
1056.86,1651.00
1058.31,1959.00
1059.76,3243.00
1061.21,2312.00
1062.66,2736.00
1064.10,3342.00
1065.55,2880.00
1067.00,3665.00
1068.44,2458.00
1069.88,3535.00
1071.33,3418.00
1072.77,2116.00
1074.21,3417.00
1075.65,2407.00
1077.09,1889.00
1078.53,1787.00
1079.97,1553.00
1081.41,1572.00
1082.84,1426.00
1084.28,739.00
1085.71,945.00
1087.15,1063.00
1088.58,905.00
1090.02,1100.00
1091.45,879.00
1092.88,811.00
1094.31,614.00
1095.74,722.00
1097.17,682.00
1098.60,382.00
1100.02,-220.00
1101.45,540.00
1102.88,482.00
1104.30,-162.00
1105.73,1098.00
1107.15,455.00
1108.57,95.00
1109.99,-921.00
1111.42,676.00
1112.84,164.00
1114.26,190.00
1115.68,943.00
1117.09,-499.00
1118.51,317.00
1119.93,335.00
1121.34,589.00
1122.76,768.00
1124.17,727.00
1125.59,653.00
1127.00,381.00
1128.41,345.00
1129.82,224.00
1131.24,426.00
1132.65,195.00
1134.05,386.00
1135.46,-111.00
1136.87,279.00
1138.28,432.00
1139.68,99.00
1141.09,285.00
1142.50,374.00
1143.90,351.00
1145.30,589.00
1146.71,27.00
1148.11,306.00
1149.51,242.00
1150.91,353.00
1152.31,221.00
1153.71,412.00
1155.11,324.00
1156.50,-100.00
1157.90,184.00
1159.30,484.00
1160.69,41.00
1162.08,831.00
1163.48,308.00
1164.87,-6.00
1166.26,317.00
1167.66,456.00
1169.05,498.00
1170.44,208.00
1171.83,287.00
1173.21,389.00
1174.60,442.00
1175.99,171.00
1177.38,260.00
1178.76,356.00
1180.15,337.00
1181.53,784.00
1182.92,371.00
1184.30,29.00
1185.68,906.00
1187.06,218.00
1188.44,773.00
1189.82,832.00
1191.20,887.00
1192.58,1645.00
1193.96,793.00
1195.34,534.00
1196.71,539.00
1198.09,635.00
1199.46,567.00
1200.84,1380.00
1202.21,1223.00
1203.58,722.00
1204.96,1640.00
1206.33,1905.00
1207.70,2263.00
1209.07,1562.00
1210.44,3080.00
1211.81,2251.00
1213.17,3510.00
1214.54,3210.00
1215.91,3617.00
1217.27,4101.00
1218.64,3700.00
1220.00,4647.00
1221.37,4146.00
1222.73,3959.00
1224.09,3815.00
1225.45,4082.00
1226.82,2559.00
1228.18,3485.00
1229.54,3252.00
1230.89,3316.00
1232.25,2603.00
1233.61,2180.00
1234.97,1778.00
1236.32,3198.00
1237.68,2364.00
1239.03,1894.00
1240.39,2000.00
1241.74,1633.00
1243.09,934.00
1244.45,1647.00
1245.80,1556.00
1247.15,1424.00
1248.50,1276.00
1249.85,1164.00
1251.20,791.00
1252.54,837.00
1253.89,1330.00
1255.24,254.00
1256.58,-80.00
1257.93,1561.00
1259.27,411.00
1260.62,-625.00
1261.96,86.00
1263.30,152.00
1264.64,802.00
1265.98,286.00
1267.33,952.00
1268.67,307.00
1270.00,1147.00
1271.34,151.00
1272.68,-30.00
1274.02,395.00
1275.35,444.00
1276.69,254.00
1278.03,1806.00
1279.36,765.00
1280.69,575.00
1282.03,146.00
1283.36,667.00
1284.69,-109.00
1286.02,777.00
1287.35,673.00
1288.68,729.00
1290.01,319.00
1291.34,129.00
1292.67,899.00
1294.00,592.00
1295.32,713.00
1296.65,772.00
1297.97,-18.00
1299.30,736.00
1300.62,1099.00
1301.94,483.00
1303.27,893.00
1304.59,897.00
1305.91,154.00
1307.23,878.00
1308.55,705.00
1309.87,808.00
1311.19,361.00
1312.51,491.00
1313.82,352.00
1315.14,1084.00
1316.46,276.00
1317.77,525.00
1319.09,585.00
1320.40,1021.00
1321.72,642.00
1323.03,717.00
1324.34,185.00
1325.65,230.00
1326.96,499.00
1328.27,505.00
1329.58,954.00
1330.89,465.00
1332.20,1013.00
1333.51,1545.00
1334.82,662.00
1336.12,1474.00
1337.43,1457.00
1338.73,872.00
1340.04,710.00
1341.34,15.00
1342.65,862.00
1343.95,1598.00
1345.25,1011.00
1346.55,1337.00
1347.85,1521.00
1349.15,899.00
1350.45,1715.00
1351.75,1113.00
1353.05,1471.00
1354.35,2745.00
1355.65,1691.00
1356.94,1309.00
1358.24,1044.00
1359.53,2460.00
1360.83,1672.00
1362.12,1899.00
1363.42,1877.00
1364.71,2151.00
1366.00,1537.00
1367.29,1232.00
1368.58,1738.00
1369.87,1327.00
1371.16,1270.00
1372.45,2687.00
1373.74,1769.00
1375.03,1982.00
1376.32,1322.00
1377.60,2161.00
1378.89,1761.00
1380.17,977.00
1381.46,1862.00
1382.74,1712.00
1384.03,2427.00
1385.31,2451.00
1386.59,2062.00
1387.87,2386.00
1389.15,2304.00
1390.43,1908.00
1391.71,2947.00
1392.99,3201.00
1394.27,3385.00
1395.55,3067.00
1396.83,2546.00
1398.11,2823.00
1399.38,2748.00
1400.66,3565.00
1401.93,3905.00
1403.21,4174.00
1404.48,3909.00
1405.75,3878.00
1407.03,4765.00
1408.30,5403.00
1409.57,5184.00
1410.84,5466.00
1412.11,5652.00
1413.38,6457.00
1414.65,6254.00
1415.92,7208.00
1417.19,7599.00
1418.46,6245.00
1419.72,7555.00
1420.99,7901.00
1422.25,7872.00
1423.52,7549.00
1424.78,8027.00
1426.05,7987.00
1427.31,9686.00
1428.57,8571.00
1429.84,8043.00
1431.10,9023.00
1432.36,7896.00
1433.62,9317.00
1434.88,9215.00
1436.14,8230.00
1437.40,8654.00
1438.65,8229.00
1439.91,7822.00
1441.17,7677.00
1442.43,7817.00
1443.68,8886.00
1444.94,7106.00
1446.19,6635.00
1447.44,5745.00
1448.70,6063.00
1449.95,4986.00
1451.20,5558.00
1452.46,5592.00
1453.71,3941.00
1454.96,5463.00
1456.21,4499.00
1457.46,5400.00
1458.71,3916.00
1459.95,4281.00
1461.20,4323.00
1462.45,3704.00
1463.70,4432.00
1464.94,3285.00
1466.19,2587.00
1467.43,3316.00
1468.68,2752.00
1469.92,3001.00
1471.16,2613.00
1472.41,2685.00
1473.65,3372.00
1474.89,2962.00
1476.13,2269.00
1477.37,2038.00
1478.61,2185.00
1479.85,2066.00
1481.09,1325.00
1482.33,1693.00
1483.57,1875.00
1484.80,1887.00
1486.04,2039.00
1487.28,1518.00
1488.51,1959.00
1489.75,1249.00
1490.98,1628.00
1492.21,2451.00
1493.45,1154.00
1494.68,1586.00
1495.91,1718.00
1497.14,1563.00
1498.37,1441.00
1499.61,1985.00
1500.84,859.00
1502.06,1303.00
1503.29,1274.00
1504.52,1199.00
1505.75,2065.00
1506.98,748.00
1508.20,1662.00
1509.43,701.00
1510.66,1140.00
1511.88,351.00
1513.11,1267.00
1514.33,2581.00
1515.55,1332.00
1516.78,1620.00
1518.00,1623.00
1519.22,359.00
1520.44,1148.00
1521.66,703.00
1522.88,434.00
1524.10,481.00
1525.32,913.00
1526.54,716.00
1527.76,1202.00
1528.98,565.00
1530.19,1128.00
1531.41,1524.00
1532.63,1251.00
1533.84,213.00
1535.06,-126.00
1536.27,1068.00
1537.48,265.00
1538.70,533.00
1539.91,603.00
1541.12,1896.00
1542.33,1511.00
1543.55,542.00
1544.76,1152.00
1545.97,728.00
1547.18,1295.00
1548.39,103.00
1549.59,95.00
1550.80,640.00
1552.01,1025.00
1553.22,661.00
1554.42,-384.00
1555.63,738.00
1556.84,994.00
1558.04,882.00
1559.24,731.00
1560.45,443.00
1561.65,98.00
1562.86,1148.00
1564.06,883.00
1565.26,211.00
1566.46,918.00
1567.66,1305.00
1568.86,1540.00
1570.06,-12.00
1571.26,548.00
1572.46,1346.00
1573.66,851.00
1574.86,312.00
1576.05,189.00
1577.25,319.00
1578.45,698.00
1579.64,516.00
1580.84,76.00
1582.03,482.00
1583.23,606.00
1584.42,-220.00
1585.61,-348.00
1586.81,6.00
1588.00,221.00
1589.19,303.00
1590.38,-99.00
1591.57,666.00
1592.76,19.00
1593.95,759.00
1595.14,316.00
1596.33,-216.00
1597.52,687.00
1598.71,634.00
1599.90,698.00
1601.08,7.00
1602.27,930.00
1603.45,315.00
1604.64,344.00
1605.83,412.00
1607.01,665.00
1608.19,-211.00
1609.38,827.00
1610.56,147.00
1611.74,473.00
1612.92,497.00
1614.11,877.00
1615.29,183.00
1616.47,-145.00
1617.65,295.00
1618.83,336.00
1620.01,678.00
1621.18,102.00
1622.36,196.00
1623.54,173.00
1624.72,491.00
1625.89,605.00
1627.07,52.00
1628.25,1114.00
1629.42,96.00
1630.60,253.00
1631.77,-33.00
1632.94,-176.00
1634.12,342.00
1635.29,-304.00
1636.46,-525.00
1637.63,-186.00
1638.80,-548.00
1639.98,159.00
1641.15,207.00
1642.32,104.00
1643.49,-602.00
1644.65,10.00
1645.82,-65.00
1646.99,137.00
1648.16,587.00
1649.33,100.00
1650.49,-191.00
1651.66,52.00
1652.82,-670.00
1653.99,709.00
1655.15,91.00
1656.32,352.00
1657.48,313.00
1658.65,-433.00
1659.81,255.00
1660.97,-631.00
1662.13,-305.00
1663.29,615.00
1664.45,361.00
1665.62,454.00
1666.78,131.00
1667.94,33.00
1669.09,44.00
1670.25,1185.00
1671.41,55.00
1672.57,612.00
1673.73,242.00
1674.88,1233.00
1676.04,136.00
1677.20,149.00
1678.35,-129.00
1679.51,247.00
1680.66,679.00
1681.82,-49.00
1682.97,390.00
1684.12,643.00
1685.27,45.00
1686.43,690.00
1687.58,1092.00
1688.73,922.00
1689.88,783.00
1691.03,1778.00
1692.18,1319.00
1693.33,2621.00
1694.48,2201.00
1695.63,1834.00
1696.78,3325.00
1697.93,3142.00
1699.07,3101.00
1700.22,4038.00
1701.37,4747.00
1702.51,4707.00
1703.66,4445.00
1704.80,4240.00
1705.95,5070.00
1707.09,6458.00
1708.24,5875.00
1709.38,5738.00
1710.52,5705.00
1711.67,5931.00
1712.81,5579.00
1713.95,4709.00
1715.09,5212.00
1716.23,5214.00
1717.37,4945.00
1718.51,4483.00
1719.65,4067.00
1720.79,4405.00
1721.93,4423.00
1723.07,3703.00
1724.20,3230.00
1725.34,3290.00
1726.48,3643.00
1727.62,2718.00
1728.75,2910.00
1729.89,2442.00
1731.02,2816.00
1732.16,1587.00
1733.29,1731.00
1734.43,1905.00
1735.56,1711.00
1736.69,1421.00
1737.82,1523.00
1738.96,1420.00
1740.09,1562.00
1741.22,1656.00
1742.35,1711.00
1743.48,701.00
1744.61,2005.00
1745.74,1453.00
1746.87,1261.00
1748.00,1063.00
1749.13,378.00
1750.25,324.00
1751.38,932.00
1752.51,666.00
1753.64,511.00
1754.76,729.00
1755.89,986.00
1757.01,-158.00
1758.14,1117.00
1759.26,301.00
1760.39,113.00
1761.51,241.00
1762.63,759.00
1763.76,762.00
1764.88,942.00
1766.00,657.00
1767.12,401.00
1768.24,334.00
1769.37,110.00
1770.49,-266.00
1771.61,422.00
1772.73,-41.00
1773.85,61.00
1774.96,114.00
1776.08,-153.00
1777.20,-10.00
1778.32,165.00
1779.44,-101.00
1780.55,105.00
1781.67,158.00
1782.78,-259.00
1783.90,118.00
1785.01,38.00
1786.13,767.00
1787.24,186.00
1788.36,625.00
1789.47,598.00
1790.58,-790.00
1791.70,-177.00
1792.81,1008.00
1793.92,-801.00
1795.03,241.00
1796.14,-700.00
1797.26,-57.00
1798.37,-476.00
1799.48,77.00
1800.58,-823.00
1801.69,442.00
1802.80,-404.00
1803.91,397.00
1805.02,-68.00
1806.13,-683.00
1807.23,-241.00
1808.34,-681.00
1809.45,-172.00
1810.55,-134.00
1811.66,311.00
1812.76,356.00
1813.87,702.00
1814.97,202.00
1816.08,-227.00
1817.18,365.00
1818.28,-288.00
1819.39,223.00
1820.49,-186.00
1821.59,-98.00
1822.69,479.00
1823.79,405.00
1824.90,-669.00
1826.00,-627.00
1827.10,0.00
1828.20,-619.00
1829.30,-10.00
1830.39,253.00
1831.49,-339.00
1832.59,-413.00
1833.69,-323.00
1834.79,-163.00
1835.88,-329.00
1836.98,-88.00
1838.08,-336.00
1839.17,-129.00
1840.27,68.00
1841.36,-663.00
1842.46,250.00
1843.55,-298.00
1844.65,-335.00
1845.74,-452.00
1846.83,-170.00
1847.93,23.00
1849.02,49.00
1850.11,-218.00
1851.20,-322.00
1852.30,-244.00
1853.39,-72.00
1854.48,-102.00
1855.57,-52.00
1856.66,10.00
1857.75,-334.00
1858.84,-311.00
1859.93,334.00
1861.01,-11.00
1862.10,-88.00
1863.19,80.00
1864.28,42.00
1865.37,-77.00
1866.45,76.00
1867.54,-93.00
1868.62,145.00
1869.71,-612.00
1870.79,-542.00
1871.88,-268.00
1872.96,-428.00
1874.05,688.00
1875.13,3.00
1876.22,125.00
1877.30,82.00
1878.38,-496.00
1879.46,227.00
1880.55,-843.00
1881.63,103.00
1882.71,10.00
1883.79,324.00
1884.87,23.00
1885.95,260.00
1887.03,86.00
1888.11,270.00
1889.19,-225.00
1890.27,-362.00
1891.35,-507.00
1892.42,385.00
1893.50,-390.00
1894.58,213.00
1895.66,-290.00
1896.73,-661.00
1897.81,119.00
1898.89,276.00
1899.96,-739.00
1901.04,9.00
1902.11,90.00
1903.19,-80.00
1904.26,-145.00
1905.33,104.00
1906.41,57.00
1907.48,-448.00
1908.55,137.00
1909.63,258.00
1910.70,94.00
1911.77,-454.00
1912.84,-311.00
1913.91,84.00
1914.98,-303.00
1916.05,-61.00
1917.12,-412.00
1918.19,29.00
1919.26,-734.00
1920.33,-246.00
1921.40,-159.00
1922.47,-758.00
1923.54,161.00
1924.60,-484.00
1925.67,270.00
1926.74,-627.00
1927.80,-547.00
1928.87,-869.00
1929.94,-612.00
1931.00,-813.00
1932.07,-648.00
1933.13,-645.00
1934.20,-437.00
1935.26,21.00
1936.33,-748.00
1937.39,-52.00
1938.45,-162.00
1939.52,-543.00
1940.58,286.00
1941.64,-377.00
1942.70,-302.00
1943.76,-406.00
1944.83,-703.00
1945.89,-180.00
1946.95,-602.00
1948.01,-813.00
1949.07,-809.00
1950.13,-356.00
1951.19,-647.00
1952.25,-171.00
1953.30,-657.00
1954.36,767.00
1955.42,119.00
1956.48,-1129.00
1957.54,-378.00
