ENLIGHTEN Version,1.6.8
Measurement ID,20190528-094133-993586-WP-00204
Serial Number,WP-00204
Label,Acetonitrile
Integration Time,2000
Timestamp,2019-05-28 09:41:33.993586
Note,
Temperature,-99
CCD C0,640.9744873046875
CCD C1,0.11524999886751175
CCD C2,-5.4810998335597105e-06
CCD C3,-6.335299840287689e-09
CCD Offset,0
CCD Gain,1.9
Laser Wavelength,633.0
Laser Enable,False
Laser Power,100.0
Laser Temperature,-99
Pixel Count,1024

Wavenumber,Processed
196.54,241.00
199.35,220.00
202.15,193.00
204.95,179.00
207.75,179.00
210.55,195.00
213.35,161.00
216.15,146.00
218.94,148.00
221.74,127.00
224.53,129.00
227.32,107.00
230.11,101.00
232.90,86.00
235.69,101.00
238.48,103.00
241.26,106.00
244.05,70.00
246.83,53.00
249.61,76.00
252.39,97.00
255.17,74.00
257.95,90.00
260.72,55.00
263.50,89.00
266.27,42.00
269.05,19.00
271.82,74.00
274.59,39.00
277.36,48.00
280.12,53.00
282.89,88.00
285.66,65.00
288.42,40.00
291.18,30.00
293.94,31.00
296.70,47.00
299.46,65.00
302.22,84.00
304.97,65.00
307.73,68.00
310.48,59.00
313.23,88.00
315.99,44.00
318.73,59.00
321.48,78.00
324.23,51.00
326.98,72.00
329.72,99.00
332.46,99.00
335.21,106.00
337.95,127.00
340.69,143.00
343.42,156.00
346.16,203.00
348.90,213.00
351.63,249.00
354.36,310.00
357.10,372.00
359.83,504.00
362.55,662.00
365.28,849.00
368.01,1223.00
370.73,1648.00
373.46,1990.00
376.18,2203.00
378.90,1870.00
381.62,1438.00
384.34,980.00
387.06,709.00
389.78,504.00
392.49,388.00
395.20,293.00
397.92,243.00
400.63,178.00
403.34,181.00
406.05,141.00
408.75,133.00
411.46,104.00
414.16,101.00
416.87,106.00
419.57,110.00
422.27,64.00
424.97,33.00
427.67,72.00
430.37,55.00
433.06,23.00
435.76,51.00
438.45,47.00
441.14,57.00
443.83,15.00
446.52,26.00
449.21,-4.00
451.90,11.00
454.58,26.00
457.27,20.00
459.95,4.00
462.63,32.00
465.31,31.00
467.99,-3.00
470.67,-3.00
473.35,4.00
476.02,-11.00
478.70,13.00
481.37,3.00
484.04,0.00
486.71,-8.00
489.38,15.00
492.05,15.00
494.71,11.00
497.38,-19.00
500.04,-21.00
502.70,11.00
505.37,-32.00
508.03,27.00
510.68,-2.00
513.34,31.00
516.00,-34.00
518.65,-12.00
521.31,-4.00
523.96,-7.00
526.61,-4.00
529.26,0.00
531.91,-6.00
534.55,-21.00
537.20,-46.00
539.84,-17.00
542.49,-7.00
545.13,-13.00
547.77,-25.00
550.41,-40.00
553.05,-25.00
555.68,-27.00
558.32,-45.00
560.95,-28.00
563.59,-8.00
566.22,-13.00
568.85,-15.00
571.48,-32.00
574.11,-24.00
576.73,-12.00
579.36,-15.00
581.98,-16.00
584.61,-38.00
587.23,-5.00
589.85,-25.00
592.47,-6.00
595.08,-25.00
597.70,-29.00
600.31,-34.00
602.93,-38.00
605.54,-23.00
608.15,-22.00
610.76,-19.00
613.37,-21.00
615.98,-43.00
618.58,-34.00
621.19,-34.00
623.79,-28.00
626.39,-39.00
629.00,-35.00
631.59,-12.00
634.19,-24.00
636.79,-32.00
639.39,-45.00
641.98,-11.00
644.57,-27.00
647.17,-14.00
649.76,9.00
652.35,-45.00
654.93,-24.00
657.52,-24.00
660.11,-25.00
662.69,-17.00
665.27,-57.00
667.85,-27.00
670.43,-23.00
673.01,-27.00
675.59,-10.00
678.17,-29.00
680.74,-34.00
683.32,-30.00
685.89,-25.00
688.46,-24.00
691.03,10.00
693.60,0.00
696.17,-36.00
698.73,-12.00
701.30,14.00
703.86,-36.00
706.43,-37.00
708.99,-13.00
711.55,-2.00
714.10,3.00
716.66,-29.00
719.22,15.00
721.77,-23.00
724.33,4.00
726.88,-6.00
729.43,17.00
731.98,23.00
734.53,38.00
737.07,78.00
739.62,85.00
742.16,135.00
744.71,112.00
747.25,110.00
749.79,90.00
752.33,87.00
754.87,91.00
757.40,53.00
759.94,14.00
762.47,34.00
765.01,15.00
767.54,-2.00
770.07,4.00
772.60,2.00
775.12,-16.00
777.65,-12.00
780.18,0.00
782.70,-17.00
785.22,-21.00
787.74,-10.00
790.26,-25.00
792.78,-13.00
795.30,4.00
797.82,-21.00
800.33,-17.00
802.84,-9.00
805.36,6.00
807.87,-23.00
810.38,-23.00
812.89,-36.00
815.39,-6.00
817.90,-7.00
820.40,-15.00
822.91,-20.00
825.41,-26.00
827.91,-15.00
830.41,-19.00
832.91,-31.00
835.40,-13.00
837.90,2.00
840.39,-13.00
842.89,-36.00
845.38,0.00
847.87,-19.00
850.36,-19.00
852.85,-23.00
855.33,-4.00
857.82,21.00
860.30,-4.00
862.79,-18.00
865.27,5.00
867.75,-25.00
870.23,-25.00
872.70,14.00
875.18,13.00
877.66,13.00
880.13,-13.00
882.60,24.00
885.07,8.00
887.54,3.00
890.01,22.00
892.48,32.00
894.95,57.00
897.41,84.00
899.87,109.00
902.34,138.00
904.80,222.00
907.26,331.00
909.72,633.00
912.17,1876.00
914.63,4223.00
917.08,4040.00
919.54,2644.00
921.99,1447.00
924.44,740.00
926.89,375.00
929.34,187.00
931.78,114.00
934.23,76.00
936.67,57.00
939.12,55.00
941.56,36.00
944.00,19.00
946.44,15.00
948.88,0.00
951.31,34.00
953.75,27.00
956.18,5.00
958.61,-12.00
961.05,24.00
963.48,15.00
965.91,-27.00
968.33,-24.00
970.76,15.00
973.18,21.00
975.61,-3.00
978.03,-6.00
980.45,48.00
982.87,-4.00
985.29,26.00
987.71,-10.00
990.12,-21.00
992.54,13.00
994.95,11.00
997.36,14.00
999.78,16.00
1002.19,14.00
1004.59,5.00
1007.00,8.00
1009.41,3.00
1011.81,4.00
1014.21,-17.00
1016.62,35.00
1019.02,34.00
1021.42,28.00
1023.82,19.00
1026.21,36.00
1028.61,27.00
1031.00,53.00
1033.39,40.00
1035.79,84.00
1038.18,65.00
1040.57,59.00
1042.95,57.00
1045.34,54.00
1047.73,36.00
1050.11,42.00
1052.49,27.00
1054.87,13.00
1057.25,36.00
1059.63,25.00
1062.01,25.00
1064.39,21.00
1066.76,-8.00
1069.14,17.00
1071.51,4.00
1073.88,22.00
1076.25,24.00
1078.62,34.00
1080.99,25.00
1083.35,10.00
1085.72,0.00
1088.08,-4.00
1090.44,23.00
1092.80,23.00
1095.16,-10.00
1097.52,-4.00
1099.88,25.00
1102.24,8.00
1104.59,4.00
1106.94,6.00
1109.30,2.00
1111.65,10.00
1114.00,5.00
1116.34,-9.00
1118.69,18.00
1121.04,-3.00
1123.38,17.00
1125.72,-4.00
1128.07,15.00
1130.41,5.00
1132.75,-4.00
1135.08,4.00
1137.42,-8.00
1139.76,9.00
1142.09,2.00
1144.42,12.00
1146.76,-15.00
1149.09,14.00
1151.41,11.00
1153.74,-4.00
1156.07,2.00
1158.39,-19.00
1160.72,-9.00
1163.04,-29.00
1165.36,2.00
1167.68,-4.00
1170.00,-13.00
1172.32,-13.00
1174.63,-13.00
1176.95,12.00
1179.26,-33.00
1181.58,-28.00
1183.89,-14.00
1186.20,0.00
1188.51,23.00
1190.81,31.00
1193.12,2.00
1195.42,-11.00
1197.73,-7.00
1200.03,-36.00
1202.33,-25.00
1204.63,-15.00
1206.93,-2.00
1209.23,13.00
1211.52,-16.00
1213.82,-12.00
1216.11,-23.00
1218.40,-7.00
1220.69,-2.00
1222.98,17.00
1225.27,19.00
1227.56,4.00
1229.84,-9.00
1232.13,-4.00
1234.41,-10.00
1236.69,13.00
1238.97,-7.00
1241.25,15.00
1243.53,5.00
1245.80,4.00
1248.08,2.00
1250.35,31.00
1252.63,26.00
1254.90,27.00
1257.17,11.00
1259.44,6.00
1261.71,4.00
1263.97,23.00
1266.24,17.00
1268.50,29.00
1270.76,23.00
1273.03,2.00
1275.29,23.00
1277.54,30.00
1279.80,17.00
1282.06,48.00
1284.31,46.00
1286.57,42.00
1288.82,25.00
1291.07,42.00
1293.32,40.00
1295.57,56.00
1297.82,51.00
1300.06,53.00
1302.31,59.00
1304.55,62.00
1306.79,74.00
1309.03,70.00
1311.27,76.00
1313.51,114.00
1315.75,101.00
1317.98,86.00
1320.22,113.00
1322.45,127.00
1324.68,116.00
1326.91,120.00
1329.14,120.00
1331.37,143.00
1333.60,175.00
1335.82,177.00
1338.05,164.00
1340.27,179.00
1342.49,173.00
1344.71,211.00
1346.93,204.00
1349.15,224.00
1351.37,274.00
1353.58,322.00
1355.80,315.00
1358.01,438.00
1360.22,514.00
1362.43,645.00
1364.64,875.00
1366.85,1163.00
1369.06,1533.00
1371.26,1630.00
1373.47,1470.00
1375.67,1185.00
1377.87,930.00
1380.07,807.00
1382.27,695.00
1384.47,601.00
1386.66,550.00
1388.86,528.00
1391.05,552.00
1393.24,514.00
1395.44,478.00
1397.63,474.00
1399.81,537.00
1402.00,561.00
1404.19,552.00
1406.37,565.00
1408.56,563.00
1410.74,557.00
1412.92,548.00
1415.10,540.00
1417.28,540.00
1419.46,555.00
1421.63,532.00
1423.81,533.00
1425.98,565.00
1428.15,537.00
1430.32,551.00
1432.49,592.00
1434.66,596.00
1436.83,601.00
1438.99,656.00
1441.16,634.00
1443.32,635.00
1445.48,590.00
1447.64,656.00
1449.80,609.00
1451.96,614.00
1454.12,531.00
1456.27,510.00
1458.43,476.00
1460.58,460.00
1462.73,399.00
1464.88,407.00
1467.03,386.00
1469.18,357.00
1471.33,329.00
1473.47,346.00
1475.62,331.00
1477.76,276.00
1479.90,295.00
1482.04,295.00
1484.18,248.00
1486.32,281.00
1488.46,270.00
1490.59,232.00
1492.73,227.00
1494.86,251.00
1496.99,242.00
1499.12,219.00
1501.25,215.00
1503.38,213.00
1505.50,198.00
1507.63,198.00
1509.75,187.00
1511.88,196.00
1514.00,221.00
1516.12,196.00
1518.24,180.00
1520.35,193.00
1522.47,162.00
1524.59,170.00
1526.70,133.00
1528.81,175.00
1530.92,168.00
1533.03,176.00
1535.14,183.00
1537.25,164.00
1539.36,162.00
1541.46,146.00
1543.56,120.00
1545.67,143.00
1547.77,131.00
1549.87,143.00
1551.97,154.00
1554.06,133.00
1556.16,118.00
1558.25,102.00
1560.35,120.00
1562.44,122.00
1564.53,110.00
1566.62,104.00
1568.71,120.00
1570.80,89.00
1572.88,66.00
1574.97,101.00
1577.05,57.00
1579.13,61.00
1581.21,78.00
1583.29,52.00
1585.37,97.00
1587.45,47.00
1589.52,95.00
1591.60,55.00
1593.67,38.00
1595.74,67.00
1597.81,61.00
1599.88,55.00
1601.95,64.00
1604.02,40.00
1606.08,69.00
1608.15,36.00
1610.21,40.00
1612.27,29.00
1614.33,30.00
1616.39,35.00
1618.45,28.00
1620.51,14.00
1622.56,30.00
1624.62,33.00
1626.67,13.00
1628.72,38.00
1630.77,33.00
1632.82,15.00
1634.87,40.00
1636.92,22.00
1638.96,23.00
1641.01,17.00
1643.05,11.00
1645.09,25.00
1647.13,20.00
1649.17,36.00
1651.21,13.00
1653.25,27.00
1655.28,23.00
1657.32,31.00
1659.35,21.00
1661.38,49.00
1663.41,13.00
1665.44,25.00
1667.47,0.00
1669.49,0.00
1671.52,21.00
1673.54,8.00
1675.56,-8.00
1677.59,13.00
1679.61,35.00
1681.63,-19.00
1683.64,-2.00
1685.66,-21.00
1687.67,4.00
1689.69,23.00
1691.70,-13.00
1693.71,-2.00
1695.72,-5.00
1697.73,-5.00
1699.74,52.00
1701.75,25.00
1703.75,19.00
1705.75,-5.00
1707.76,21.00
1709.76,-12.00
1711.76,-4.00
1713.76,3.00
1715.75,8.00
1717.75,5.00
1719.74,35.00
1721.74,13.00
1723.73,15.00
1725.72,11.00
1727.71,6.00
1729.70,14.00
1731.69,-2.00
1733.67,-8.00
1735.66,-17.00
1737.64,0.00
1739.62,6.00
1741.61,16.00
1743.59,2.00
1745.56,-31.00
1747.54,15.00
1749.52,7.00
1751.49,2.00
1753.47,2.00
1755.44,-11.00
1757.41,-19.00
1759.38,-2.00
1761.35,4.00
1763.31,31.00
1765.28,8.00
1767.25,15.00
1769.21,15.00
1771.17,-9.00
1773.13,-25.00
1775.09,19.00
1777.05,-5.00
1779.01,17.00
1780.96,150.00
1782.92,-2.00
1784.87,48.00
1786.82,-21.00
1788.77,-10.00
1790.72,-5.00
1792.67,6.00
1794.62,29.00
1796.56,27.00
1798.51,-11.00
1800.45,4.00
1802.39,12.00
1804.34,19.00
1806.28,12.00
1808.21,-15.00
1810.15,30.00
1812.09,17.00
1814.02,38.00
1815.95,26.00
1817.89,4.00
1819.82,70.00
1821.75,57.00
1823.67,11.00
1825.60,19.00
1827.53,15.00
1829.45,-2.00
1831.37,15.00
1833.30,17.00
1835.22,0.00
1837.14,6.00
1839.06,-8.00
1840.97,-9.00
1842.89,36.00
1844.80,19.00
1846.72,9.00
1848.63,17.00
1850.54,34.00
1852.45,29.00
1854.36,27.00
1856.26,17.00
1858.17,29.00
1860.07,-4.00
1861.98,19.00
1863.88,31.00
1865.78,-17.00
1867.68,2.00
1869.58,25.00
1871.47,4.00
1873.37,18.00
1875.26,23.00
1877.15,11.00
1879.05,15.00
1880.94,38.00
1882.83,2.00
1884.71,2.00
1886.60,2.00
1888.49,-15.00
1890.37,8.00
1892.25,-4.00
1894.14,34.00
1896.02,16.00
1897.90,-8.00
1899.77,-9.00
1901.65,9.00
1903.53,27.00
1905.40,16.00
1907.27,11.00
1909.15,-2.00
1911.02,15.00
1912.89,-4.00
1914.75,-19.00
1916.62,6.00
1918.49,2.00
1920.35,-2.00
1922.21,11.00
1924.07,6.00
1925.93,-6.00
1927.79,-5.00
1929.65,-25.00
1931.51,-17.00
1933.36,-8.00
1935.22,4.00
1937.07,9.00
1938.92,13.00
1940.77,6.00
1942.62,-11.00
1944.47,-10.00
1946.32,-4.00
1948.16,6.00
1950.01,34.00
1951.85,-12.00
1953.69,-2.00
1955.53,2.00
1957.37,-2.00
1959.21,8.00
1961.05,-13.00
1962.88,-13.00
1964.72,2.00
1966.55,19.00
1968.38,6.00
1970.21,-1.00
1972.04,17.00
1973.87,-10.00
1975.69,17.00
1977.52,4.00
1979.34,6.00
1981.17,25.00
1982.99,15.00
1984.81,-2.00
1986.63,-6.00
1988.45,-10.00
1990.26,-4.00
1992.08,-13.00
1993.89,-19.00
1995.71,360.00
1997.52,0.00
1999.33,-5.00
2001.14,-30.00
2002.95,9.00
2004.75,7.00
2006.56,-8.00
2008.36,-13.00
2010.16,-15.00
2011.97,13.00
2013.77,-10.00
2015.57,-14.00
2017.36,2.00
2019.16,-40.00
2020.96,28.00
2022.75,-9.00
2024.54,32.00
2026.33,15.00
2028.13,14.00
2029.91,-2.00
2031.70,2.00
2033.49,6.00
2035.27,7.00
2037.06,-26.00
2038.84,9.00
2040.62,19.00
2042.40,44.00
2044.18,-17.00
2045.96,19.00
2047.74,-8.00
2049.51,2.00
2051.29,8.00
2053.06,0.00
2054.83,27.00
2056.60,2.00
2058.37,-17.00
2060.14,-4.00
2061.91,-19.00
2063.67,0.00
2065.44,-17.00
2067.20,6.00
2068.96,17.00
2070.72,-4.00
2072.48,6.00
2074.24,16.00
2076.00,-4.00
2077.75,-4.00
2079.51,19.00
2081.26,-11.00
2083.01,17.00
2084.76,16.00
2086.51,13.00
2088.26,6.00
2090.01,13.00
2091.75,-23.00
2093.50,-2.00
2095.24,2.00
2096.98,-9.00
2098.72,3.00
2100.46,10.00
2102.20,15.00
2103.94,34.00
2105.67,8.00
2107.41,2.00
2109.14,-2.00
2110.87,13.00
2112.60,17.00
2114.33,17.00
2116.06,-7.00
2117.79,-11.00
2119.51,19.00
2121.24,0.00
2122.96,5.00
2124.68,26.00
2126.40,0.00
2128.12,-10.00
2129.84,19.00
2131.56,12.00
2133.27,-26.00
2134.99,5.00
2136.70,-4.00
2138.41,2.00
2140.12,19.00
2141.83,21.00
2143.54,31.00
2145.25,33.00
2146.95,20.00
2148.66,-4.00
2150.36,-4.00
2152.06,13.00
2153.76,-4.00
2155.46,27.00
2157.16,3.00
2158.86,23.00
2160.55,14.00
2162.25,32.00
2163.94,18.00
2165.63,17.00
2167.32,8.00
2169.01,32.00
2170.70,11.00
2172.39,30.00
2174.08,34.00
2175.76,19.00
2177.44,13.00
2179.13,46.00
2180.81,33.00
2182.49,10.00
2184.16,52.00
2185.84,25.00
2187.52,95.00
2189.19,47.00
2190.87,78.00
2192.54,64.00
2194.21,92.00
2195.88,123.00
2197.55,167.00
2199.21,167.00
2200.88,245.00
2202.54,171.00
2204.21,117.00
2205.87,70.00
2207.53,69.00
2209.19,94.00
2210.85,101.00
2212.51,97.00
2214.16,70.00
2215.82,261.00
2217.47,158.00
2219.12,183.00
2220.77,162.00
2222.42,186.00
2224.07,226.00
2225.72,196.00
2227.37,251.00
2229.01,296.00
2230.65,337.00
2232.30,376.00
2233.94,508.00
2235.58,711.00
2237.22,931.00
2238.85,1383.00
2240.49,2062.00
2242.13,3000.00
2243.76,4497.00
2245.39,6569.00
2247.02,8937.00
2248.65,11555.00
2250.28,12786.00
2251.91,8694.00
2253.54,4280.00
2255.16,2215.00
2256.78,1379.00
2258.41,1052.00
2260.03,780.00
2261.65,647.00
2263.27,521.00
2264.88,440.00
2266.50,405.00
2268.12,392.00
2269.73,400.00
2271.34,361.00
2272.95,324.00
2274.56,316.00
2276.17,329.00
2277.78,391.00
2279.39,369.00
2280.99,437.00
2282.60,478.00
2284.20,632.00
2285.80,749.00
2287.40,903.00
2289.00,1059.00
2290.60,1022.00
2292.19,896.00
2293.79,698.00
2295.38,496.00
2296.98,398.00
2298.57,306.00
2300.16,232.00
2301.75,179.00
2303.34,160.00
2304.92,140.00
2306.51,118.00
2308.09,93.00
2309.67,95.00
2311.26,97.00
2312.84,110.00
2314.42,90.00
2315.99,100.00
2317.57,65.00
2319.15,68.00
2320.72,95.00
2322.29,72.00
2323.86,76.00
2325.44,40.00
2327.00,46.00
2328.57,41.00
2330.14,42.00
2331.71,38.00
2333.27,71.00
2334.83,40.00
2336.39,30.00
2337.95,34.00
2339.51,59.00
2341.07,47.00
2342.63,38.00
2344.19,19.00
2345.74,42.00
2347.29,38.00
2348.84,38.00
2350.40,0.00
2351.94,42.00
2353.49,36.00
2355.04,30.00
2356.59,30.00
2358.13,22.00
2359.67,8.00
2361.22,20.00
2362.76,29.00
2364.30,25.00
2365.83,59.00
2367.37,19.00
2368.91,-4.00
2370.44,27.00
2371.98,22.00
2373.51,23.00
2375.04,14.00
2376.57,44.00
2378.10,42.00
2379.62,21.00
2381.15,2.00
2382.68,5.00
2384.20,-7.00
2385.72,42.00
2387.24,31.00
2388.76,24.00
2390.28,17.00
2391.80,30.00
2393.31,19.00
2394.83,30.00
2396.34,4.00
2397.85,48.00
2399.37,19.00
