ENLIGHTEN Version,1.6.8
Measurement ID,20190528-110130-978558-WP-00357
Serial Number,WP-00357
Label,Acetonitrile
Integration Time,7
Timestamp,2019-05-28 11:01:30.978558
Note,
Temperature,-99
CCD C0,801.1829833984375
CCD C1,0.12474799901247025
CCD C2,-2.2862799596623518e-05
CCD C3,4.907460215974879e-09
CCD Offset,0
CCD Gain,1.9
Laser Wavelength,785.0
Laser Enable,False
Laser Power,100.0
Laser Temperature,-99
Pixel Count,1952

Wavenumber,Processed
257.31,0.00
259.25,0.00
261.19,0.00
263.13,372.00
265.07,-145.00
267.01,422.00
268.95,-1.00
270.88,-443.00
272.82,235.00
274.75,216.00
276.68,315.00
278.61,384.00
280.54,-108.00
282.46,158.00
284.39,393.00
286.31,-436.00
288.24,151.00
290.16,495.00
292.08,128.00
294.00,626.00
295.92,-1005.00
297.83,-334.00
299.75,200.00
301.66,-204.00
303.58,36.00
305.49,606.00
307.40,-274.00
309.31,294.00
311.22,304.00
313.12,117.00
315.03,757.00
316.93,-225.00
318.83,266.00
320.73,-806.00
322.63,-789.00
324.53,-324.00
326.43,423.00
328.33,-7.00
330.22,-309.00
332.12,286.00
334.01,-130.00
335.90,206.00
337.79,-34.00
339.68,0.00
341.57,90.00
343.45,-424.00
345.34,465.00
347.22,186.00
349.10,553.00
350.98,590.00
352.86,633.00
354.74,723.00
356.62,-16.00
358.50,535.00
360.37,405.00
362.24,514.00
364.12,951.00
365.99,1333.00
367.86,604.00
369.73,2382.00
371.59,2663.00
373.46,3273.00
375.33,4133.00
377.19,6257.00
379.05,5139.00
380.91,5797.00
382.77,6240.00
384.63,8199.00
386.49,6369.00
388.35,7275.00
390.20,5294.00
392.06,5424.00
393.91,4264.00
395.76,5169.00
397.61,3257.00
399.46,4036.00
401.31,2137.00
403.15,2727.00
405.00,2267.00
406.84,2243.00
408.69,1139.00
410.53,2539.00
412.37,2224.00
414.21,2021.00
416.05,1032.00
417.88,1755.00
419.72,928.00
421.55,1043.00
423.39,1494.00
425.22,813.00
427.05,633.00
428.88,773.00
430.71,1253.00
432.54,1019.00
434.36,997.00
436.19,337.00
438.01,851.00
439.83,984.00
441.65,718.00
443.48,271.00
445.29,999.00
447.11,517.00
448.93,679.00
450.74,603.00
452.56,651.00
454.37,198.00
456.18,701.00
457.99,529.00
459.80,834.00
461.61,956.00
463.42,914.00
465.23,1429.00
467.03,56.00
468.83,764.00
470.64,28.00
472.44,848.00
474.24,216.00
476.04,666.00
477.84,-105.00
479.63,496.00
481.43,719.00
483.22,617.00
485.02,416.00
486.81,459.00
488.60,581.00
490.39,24.00
492.18,-274.00
493.96,286.00
495.75,-12.00
497.54,404.00
499.32,35.00
501.10,292.00
502.88,107.00
504.67,373.00
506.45,712.00
508.22,492.00
510.00,189.00
511.78,524.00
513.55,202.00
515.33,-100.00
517.10,694.00
518.87,529.00
520.64,-179.00
522.41,355.00
524.18,-278.00
525.94,343.00
527.71,909.00
529.47,-357.00
531.24,444.00
533.00,127.00
534.76,13.00
536.52,278.00
538.28,733.00
540.04,268.00
541.80,408.00
543.55,680.00
545.31,-531.00
547.06,1154.00
548.81,106.00
550.56,-83.00
552.31,-303.00
554.06,-607.00
555.81,600.00
557.56,282.00
559.30,-321.00
561.05,478.00
562.79,577.00
564.53,592.00
566.28,-107.00
568.02,637.00
569.75,-535.00
571.49,-144.00
573.23,453.00
574.97,-200.00
576.70,722.00
578.43,278.00
580.17,-244.00
581.90,-274.00
583.63,610.00
585.36,98.00
587.09,-589.00
588.81,220.00
590.54,-225.00
592.26,738.00
593.99,252.00
595.71,-85.00
597.43,108.00
599.15,-83.00
600.87,180.00
602.59,97.00
604.31,272.00
606.02,481.00
607.74,158.00
609.45,23.00
611.17,765.00
612.88,-292.00
614.59,-149.00
616.30,583.00
618.01,550.00
619.71,-92.00
621.42,-528.00
623.13,641.00
624.83,672.00
626.53,-284.00
628.24,219.00
629.94,225.00
631.64,528.00
633.34,-112.00
635.04,483.00
636.73,-109.00
638.43,114.00
640.12,-352.00
641.82,593.00
643.51,450.00
645.20,531.00
646.89,17.00
648.58,220.00
650.27,-60.00
651.96,-537.00
653.65,1033.00
655.33,45.00
657.02,637.00
658.70,-445.00
660.38,545.00
662.06,143.00
663.74,-343.00
665.42,632.00
667.10,56.00
668.78,-184.00
670.45,251.00
672.13,635.00
673.80,175.00
675.48,-237.00
677.15,637.00
678.82,840.00
680.49,299.00
682.16,231.00
683.83,769.00
685.49,71.00
687.16,677.00
688.82,884.00
690.49,-62.00
692.15,242.00
693.81,-57.00
695.47,-409.00
697.13,220.00
698.79,210.00
700.45,485.00
702.11,125.00
703.76,495.00
705.42,-246.00
707.07,281.00
708.72,1323.00
710.37,68.00
712.02,71.00
713.67,326.00
715.32,-232.00
716.97,349.00
718.62,76.00
720.26,232.00
721.91,-160.00
723.55,268.00
725.19,442.00
726.84,102.00
728.48,1050.00
730.12,553.00
731.75,1027.00
733.39,744.00
735.03,-97.00
736.66,809.00
738.30,661.00
739.93,693.00
741.57,2034.00
743.20,816.00
744.83,1750.00
746.46,452.00
748.09,708.00
749.71,1335.00
751.34,1300.00
752.97,1010.00
754.59,1213.00
756.22,1065.00
757.84,1524.00
759.46,585.00
761.08,857.00
762.70,111.00
764.32,16.00
765.94,1025.00
767.56,288.00
769.17,512.00
770.79,277.00
772.40,595.00
774.01,89.00
775.63,512.00
777.24,591.00
778.85,340.00
780.46,162.00
782.07,-385.00
783.67,25.00
785.28,157.00
786.88,-201.00
788.49,55.00
790.09,306.00
791.70,-159.00
793.30,33.00
794.90,-213.00
796.50,565.00
798.10,-373.00
799.69,619.00
801.29,25.00
802.89,-120.00
804.48,764.00
806.08,302.00
807.67,-294.00
809.26,268.00
810.85,163.00
812.44,441.00
814.03,342.00
815.62,912.00
817.21,-88.00
818.79,142.00
820.38,590.00
821.96,289.00
823.55,-125.00
825.13,213.00
826.71,-27.00
828.29,292.00
829.87,5.00
831.45,104.00
833.03,-413.00
834.61,205.00
836.18,268.00
837.76,92.00
839.33,336.00
840.91,811.00
842.48,361.00
844.05,374.00
845.62,262.00
847.19,719.00
848.76,-159.00
850.33,702.00
851.90,395.00
853.46,976.00
855.03,277.00
856.59,372.00
858.15,-308.00
859.72,256.00
861.28,605.00
862.84,-278.00
864.40,505.00
865.96,-591.00
867.52,120.00
869.07,-251.00
870.63,659.00
872.18,415.00
873.74,829.00
875.29,548.00
876.84,356.00
878.40,-47.00
879.95,-4.00
881.50,123.00
883.04,503.00
884.59,-48.00
886.14,508.00
887.69,695.00
889.23,504.00
890.78,571.00
892.32,607.00
893.86,469.00
895.40,1460.00
896.94,429.00
898.48,404.00
900.02,1725.00
901.56,1026.00
903.10,1941.00
904.63,2718.00
906.17,3712.00
907.70,5476.00
909.24,7532.00
910.77,9509.00
912.30,13702.00
913.83,17257.00
915.36,20070.00
916.89,26494.00
918.42,28677.00
919.95,29496.00
921.48,27365.00
923.00,28102.00
924.53,24212.00
926.05,21745.00
927.57,18196.00
929.10,14916.00
930.62,12090.00
932.14,8529.00
933.66,6300.00
935.18,3621.00
936.70,2884.00
938.21,2311.00
939.73,1908.00
941.24,2236.00
942.76,1692.00
944.27,1078.00
945.79,239.00
947.30,587.00
948.81,540.00
950.32,351.00
951.83,811.00
953.34,1002.00
954.84,158.00
956.35,896.00
957.86,350.00
959.36,-261.00
960.87,439.00
962.37,642.00
963.87,428.00
965.37,1030.00
966.88,842.00
968.38,542.00
969.87,-355.00
971.37,197.00
972.87,55.00
974.37,587.00
975.86,658.00
977.36,-515.00
978.85,153.00
980.35,-309.00
981.84,621.00
983.33,116.00
984.82,830.00
986.31,1057.00
987.80,915.00
989.29,-536.00
990.77,-162.00
992.26,262.00
993.75,-180.00
995.23,308.00
996.72,-142.00
998.20,120.00
999.68,1004.00
1001.16,812.00
1002.64,721.00
1004.12,426.00
1005.60,-259.00
1007.08,887.00
1008.56,348.00
1010.04,51.00
1011.51,64.00
1012.99,94.00
1014.46,23.00
1015.93,860.00
1017.41,-118.00
1018.88,263.00
1020.35,921.00
1021.82,443.00
1023.29,144.00
1024.76,790.00
1026.23,772.00
1027.69,1148.00
1029.16,379.00
1030.62,81.00
1032.09,504.00
1033.55,628.00
1035.02,187.00
1036.48,-11.00
1037.94,344.00
1039.40,759.00
1040.86,181.00
1042.32,-84.00
1043.78,73.00
1045.23,457.00
1046.69,695.00
1048.15,120.00
1049.60,687.00
1051.05,582.00
1052.51,1005.00
1053.96,281.00
1055.41,40.00
1056.86,386.00
1058.31,108.00
1059.76,638.00
1061.21,388.00
1062.66,289.00
1064.10,238.00
1065.55,81.00
1067.00,896.00
1068.44,922.00
1069.88,191.00
1071.33,389.00
1072.77,-103.00
1074.21,41.00
1075.65,198.00
1077.09,842.00
1078.53,466.00
1079.97,883.00
1081.41,134.00
1082.84,111.00
1084.28,470.00
1085.71,167.00
1087.15,336.00
1088.58,481.00
1090.02,682.00
1091.45,51.00
1092.88,263.00
1094.31,544.00
1095.74,369.00
1097.17,760.00
1098.60,104.00
1100.02,-437.00
1101.45,-485.00
1102.88,408.00
1104.30,-49.00
1105.73,922.00
1107.15,386.00
1108.57,209.00
1109.99,-597.00
1111.42,1362.00
1112.84,888.00
1114.26,147.00
1115.68,1279.00
1117.09,84.00
1118.51,627.00
1119.93,-430.00
1121.34,-322.00
1122.76,353.00
1124.17,570.00
1125.59,481.00
1127.00,-253.00
1128.41,15.00
1129.82,-77.00
1131.24,338.00
1132.65,112.00
1134.05,572.00
1135.46,687.00
1136.87,1084.00
1138.28,185.00
1139.68,476.00
1141.09,495.00
1142.50,381.00
1143.90,119.00
1145.30,566.00
1146.71,151.00
1148.11,204.00
1149.51,246.00
1150.91,1040.00
1152.31,-109.00
1153.71,220.00
1155.11,435.00
1156.50,-292.00
1157.90,389.00
1159.30,535.00
1160.69,1049.00
1162.08,1127.00
1163.48,308.00
1164.87,35.00
1166.26,702.00
1167.66,456.00
1169.05,-321.00
1170.44,315.00
1171.83,279.00
1173.21,177.00
1174.60,70.00
1175.99,202.00
1177.38,531.00
1178.76,-29.00
1180.15,-35.00
1181.53,8.00
1182.92,-249.00
1184.30,71.00
1185.68,338.00
1187.06,471.00
1188.44,825.00
1189.82,63.00
1191.20,1067.00
1192.58,198.00
1193.96,444.00
1195.34,271.00
1196.71,74.00
1198.09,105.00
1199.46,430.00
1200.84,353.00
1202.21,696.00
1203.58,241.00
1204.96,-100.00
1206.33,379.00
1207.70,422.00
1209.07,-354.00
1210.44,967.00
1211.81,21.00
1213.17,492.00
1214.54,644.00
1215.91,-178.00
1217.27,558.00
1218.64,314.00
1220.00,1170.00
1221.37,476.00
1222.73,575.00
1224.09,1021.00
1225.45,171.00
1226.82,139.00
1228.18,381.00
1229.54,479.00
1230.89,-123.00
1232.25,148.00
1233.61,-471.00
1234.97,-22.00
1236.32,1088.00
1237.68,625.00
1239.03,451.00
1240.39,593.00
1241.74,220.00
1243.09,-19.00
1244.45,876.00
1245.80,384.00
1247.15,710.00
1248.50,815.00
1249.85,3.00
1251.20,310.00
1252.54,-116.00
1253.89,-451.00
1255.24,298.00
1256.58,0.00
1257.93,974.00
1259.27,422.00
1260.62,-194.00
1261.96,711.00
1263.30,-73.00
1264.64,547.00
1265.98,581.00
1267.33,584.00
1268.67,166.00
1270.00,602.00
1271.34,-191.00
1272.68,214.00
1274.02,983.00
1275.35,947.00
1276.69,453.00
1278.03,1607.00
1279.36,709.00
1280.69,1775.00
1282.03,91.00
1283.36,1201.00
1284.69,115.00
1286.02,736.00
1287.35,430.00
1288.68,516.00
1290.01,745.00
1291.34,894.00
1292.67,276.00
1294.00,652.00
1295.32,639.00
1296.65,853.00
1297.97,9.00
1299.30,887.00
1300.62,931.00
1301.94,170.00
1303.27,360.00
1304.59,653.00
1305.91,707.00
1307.23,362.00
1308.55,439.00
1309.87,1344.00
1311.19,820.00
1312.51,471.00
1313.82,1411.00
1315.14,442.00
1316.46,389.00
1317.77,1213.00
1319.09,1134.00
1320.40,1077.00
1321.72,971.00
1323.03,1506.00
1324.34,484.00
1325.65,890.00
1326.96,1202.00
1328.27,151.00
1329.58,1151.00
1330.89,691.00
1332.20,1785.00
1333.51,750.00
1334.82,1234.00
1336.12,543.00
1337.43,900.00
1338.73,770.00
1340.04,1199.00
1341.34,462.00
1342.65,668.00
1343.95,1445.00
1345.25,334.00
1346.55,852.00
1347.85,1216.00
1349.15,1030.00
1350.45,1759.00
1351.75,1543.00
1353.05,1696.00
1354.35,1925.00
1355.65,2276.00
1356.94,2529.00
1358.24,2495.00
1359.53,2413.00
1360.83,3710.00
1362.12,3194.00
1363.42,4519.00
1364.71,4857.00
1366.00,5756.00
1367.29,5057.00
1368.58,5147.00
1369.87,5895.00
1371.16,5281.00
1372.45,6181.00
1373.74,6432.00
1375.03,7092.00
1376.32,6402.00
1377.60,6062.00
1378.89,5948.00
1380.17,5747.00
1381.46,5879.00
1382.74,5779.00
1384.03,5968.00
1385.31,6164.00
1386.59,5149.00
1387.87,4889.00
1389.15,5828.00
1390.43,4067.00
1391.71,4792.00
1392.99,5189.00
1394.27,5564.00
1395.55,4543.00
1396.83,4671.00
1398.11,2670.00
1399.38,3584.00
1400.66,5012.00
1401.93,3489.00
1403.21,3725.00
1404.48,4691.00
1405.75,3725.00
1407.03,4135.00
1408.30,4269.00
1409.57,3548.00
1410.84,4614.00
1412.11,3763.00
1413.38,4264.00
1414.65,4493.00
1415.92,3946.00
1417.19,3733.00
1418.46,3031.00
1419.72,3773.00
1420.99,4464.00
1422.25,4214.00
1423.52,3631.00
1424.78,4678.00
1426.05,3300.00
1427.31,4799.00
1428.57,3653.00
1429.84,3872.00
1431.10,4097.00
1432.36,4175.00
1433.62,3957.00
1434.88,4581.00
1436.14,4363.00
1437.40,4410.00
1438.65,4568.00
1439.91,4433.00
1441.17,4841.00
1442.43,4796.00
1443.68,4407.00
1444.94,5265.00
1446.19,4244.00
1447.44,4792.00
1448.70,4997.00
1449.95,3889.00
1451.20,4116.00
1452.46,4684.00
1453.71,3827.00
1454.96,4329.00
1456.21,3952.00
1457.46,3955.00
1458.71,4118.00
1459.95,3836.00
1461.20,3397.00
1462.45,3698.00
1463.70,3749.00
1464.94,3708.00
1466.19,3679.00
1467.43,2781.00
1468.68,2806.00
1469.92,2920.00
1471.16,2191.00
1472.41,2513.00
1473.65,2884.00
1474.89,2950.00
1476.13,2387.00
1477.37,2360.00
1478.61,2604.00
1479.85,2157.00
1481.09,1884.00
1482.33,2127.00
1483.57,2559.00
1484.80,2457.00
1486.04,2505.00
1487.28,1501.00
1488.51,2214.00
1489.75,2454.00
1490.98,1471.00
1492.21,1676.00
1493.45,1941.00
1494.68,2643.00
1495.91,1809.00
1497.14,1792.00
1498.37,1378.00
1499.61,2137.00
1500.84,1723.00
1502.06,1297.00
1503.29,2070.00
1504.52,1768.00
1505.75,1187.00
1506.98,1635.00
1508.20,2096.00
1509.43,1123.00
1510.66,1525.00
1511.88,1252.00
1513.11,1461.00
1514.33,1809.00
1515.55,1340.00
1516.78,1443.00
1518.00,1748.00
1519.22,1255.00
1520.44,1497.00
1521.66,1481.00
1522.88,936.00
1524.10,1483.00
1525.32,873.00
1526.54,878.00
1527.76,1336.00
1528.98,1139.00
1530.19,1734.00
1531.41,1482.00
1532.63,597.00
1533.84,1044.00
1535.06,609.00
1536.27,529.00
1537.48,468.00
1538.70,571.00
1539.91,1344.00
1541.12,1105.00
1542.33,1486.00
1543.55,784.00
1544.76,1234.00
1545.97,999.00
1547.18,1481.00
1548.39,994.00
1549.59,865.00
1550.80,1232.00
1552.01,1012.00
1553.22,1166.00
1554.42,-162.00
1555.63,656.00
1556.84,909.00
1558.04,675.00
1559.24,306.00
1560.45,359.00
1561.65,793.00
1562.86,1226.00
1564.06,1211.00
1565.26,1300.00
1566.46,434.00
1567.66,1107.00
1568.86,1134.00
1570.06,190.00
1571.26,1139.00
1572.46,653.00
1573.66,834.00
1574.86,172.00
1576.05,812.00
1577.25,279.00
1578.45,616.00
1579.64,-144.00
1580.84,402.00
1582.03,381.00
1583.23,204.00
1584.42,231.00
1585.61,-154.00
1586.81,803.00
1588.00,-296.00
1589.19,-143.00
1590.38,201.00
1591.57,507.00
1592.76,259.00
1593.95,179.00
1595.14,167.00
1596.33,102.00
1597.52,648.00
1598.71,42.00
1599.90,669.00
1601.08,134.00
1602.27,766.00
1603.45,163.00
1604.64,806.00
1605.83,643.00
1607.01,393.00
1608.19,-36.00
1609.38,901.00
1610.56,77.00
1611.74,658.00
1612.92,512.00
1614.11,584.00
1615.29,-189.00
1616.47,311.00
1617.65,-213.00
1618.83,-28.00
1620.01,213.00
1621.18,565.00
1622.36,838.00
1623.54,60.00
1624.72,459.00
1625.89,502.00
1627.07,399.00
1628.25,559.00
1629.42,494.00
1630.60,67.00
1631.77,122.00
1632.94,317.00
1634.12,947.00
1635.29,185.00
1636.46,-275.00
1637.63,379.00
1638.80,352.00
1639.98,-5.00
1641.15,-80.00
1642.32,-260.00
1643.49,-106.00
1644.65,-393.00
1645.82,-519.00
1646.99,386.00
1648.16,630.00
1649.33,79.00
1650.49,536.00
1651.66,737.00
1652.82,-368.00
1653.99,750.00
1655.15,8.00
1656.32,-38.00
1657.48,415.00
1658.65,-172.00
1659.81,889.00
1660.97,344.00
1662.13,637.00
1663.29,68.00
1664.45,853.00
1665.62,301.00
1666.78,-39.00
1667.94,-52.00
1669.09,357.00
1670.25,532.00
1671.41,-152.00
1672.57,-145.00
1673.73,-272.00
1674.88,535.00
1676.04,135.00
1677.20,-955.00
1678.35,115.00
1679.51,-964.00
1680.66,705.00
1681.82,-245.00
1682.97,196.00
1684.12,-458.00
1685.27,-79.00
1686.43,-189.00
1687.58,47.00
1688.73,-383.00
1689.88,-643.00
1691.03,815.00
1692.18,-77.00
1693.33,543.00
1694.48,-360.00
1695.63,527.00
1696.78,197.00
1697.93,588.00
1699.07,342.00
1700.22,136.00
1701.37,273.00
1702.51,456.00
1703.66,218.00
1704.80,-549.00
1705.95,164.00
1707.09,127.00
1708.24,609.00
1709.38,149.00
1710.52,255.00
1711.67,289.00
1712.81,686.00
1713.95,-371.00
1715.09,368.00
1716.23,367.00
1717.37,64.00
1718.51,722.00
1719.65,-495.00
1720.79,736.00
1721.93,465.00
1723.07,135.00
1724.20,408.00
1725.34,826.00
1726.48,457.00
1727.62,-110.00
1728.75,606.00
1729.89,518.00
1731.02,516.00
1732.16,421.00
1733.29,-627.00
1734.43,179.00
1735.56,287.00
1736.69,261.00
1737.82,1217.00
1738.96,-456.00
1740.09,74.00
1741.22,749.00
1742.35,757.00
1743.48,-498.00
1744.61,356.00
1745.74,45.00
1746.87,759.00
1748.00,-447.00
1749.13,-647.00
1750.25,-1146.00
1751.38,-148.00
1752.51,569.00
1753.64,155.00
1754.76,-515.00
1755.89,113.00
1757.01,187.00
1758.14,237.00
1759.26,150.00
1760.39,-239.00
1761.51,690.00
1762.63,381.00
1763.76,648.00
1764.88,-21.00
1766.00,-172.00
1767.12,-165.00
1768.24,48.00
1769.37,218.00
1770.49,62.00
1771.61,615.00
1772.73,111.00
1773.85,209.00
1774.96,111.00
1776.08,0.00
1777.20,-41.00
1778.32,65.00
1779.44,27.00
1780.55,-464.00
1781.67,391.00
1782.78,438.00
1783.90,-465.00
1785.01,-104.00
1786.13,706.00
1787.24,795.00
1788.36,586.00
1789.47,423.00
1790.58,-825.00
1791.70,426.00
1792.81,883.00
1793.92,-66.00
1795.03,-63.00
1796.14,-138.00
1797.26,-120.00
1798.37,-50.00
1799.48,26.00
1800.58,-270.00
1801.69,-179.00
1802.80,322.00
1803.91,71.00
1805.02,254.00
1806.13,310.00
1807.23,-183.00
1808.34,-236.00
1809.45,195.00
1810.55,-58.00
1811.66,-54.00
1812.76,92.00
1813.87,509.00
1814.97,429.00
1816.08,246.00
1817.18,170.00
1818.28,-84.00
1819.39,499.00
1820.49,147.00
1821.59,355.00
1822.69,345.00
1823.79,672.00
1824.90,271.00
1826.00,-457.00
1827.10,-78.00
1828.20,-526.00
1829.30,898.00
1830.39,1004.00
1831.49,104.00
1832.59,287.00
1833.69,258.00
1834.79,64.00
1835.88,29.00
1836.98,-395.00
1838.08,448.00
1839.17,-153.00
1840.27,-133.00
1841.36,-256.00
1842.46,62.00
1843.55,24.00
1844.65,-118.00
1845.74,256.00
1846.83,0.00
1847.93,-208.00
1849.02,243.00
1850.11,-58.00
1851.20,-489.00
1852.30,-192.00
1853.39,-317.00
1854.48,797.00
1855.57,416.00
1856.66,255.00
1857.75,476.00
1858.84,14.00
1859.93,-121.00
1861.01,40.00
1862.10,-586.00
1863.19,346.00
1864.28,112.00
1865.37,96.00
1866.45,429.00
1867.54,-43.00
1868.62,620.00
1869.71,-86.00
1870.79,-395.00
1871.88,340.00
1872.96,427.00
1874.05,161.00
1875.13,478.00
1876.22,479.00
1877.30,401.00
1878.38,-134.00
1879.46,478.00
1880.55,188.00
1881.63,221.00
1882.71,18.00
1883.79,949.00
1884.87,394.00
1885.95,300.00
1887.03,313.00
1888.11,40.00
1889.19,714.00
1890.27,227.00
1891.35,7.00
1892.42,385.00
1893.50,18.00
1894.58,-257.00
1895.66,192.00
1896.73,166.00
1897.81,151.00
1898.89,589.00
1899.96,-758.00
1901.04,110.00
1902.11,56.00
1903.19,128.00
1904.26,207.00
1905.33,172.00
1906.41,702.00
1907.48,-56.00
1908.55,525.00
1909.63,375.00
1910.70,826.00
1911.77,423.00
1912.84,576.00
1913.91,1000.00
1914.98,-180.00
1916.05,112.00
1917.12,286.00
1918.19,324.00
1919.26,-341.00
1920.33,-90.00
1921.40,-31.00
1922.47,-521.00
1923.54,73.00
1924.60,-696.00
1925.67,505.00
1926.74,-486.00
1927.80,587.00
1928.87,-34.00
1929.94,-914.00
1931.00,-256.00
1932.07,147.00
1933.13,-136.00
1934.20,-158.00
1935.26,51.00
1936.33,-185.00
1937.39,472.00
1938.45,88.00
1939.52,-8.00
1940.58,428.00
1941.64,333.00
1942.70,116.00
1943.76,-861.00
1944.83,254.00
1945.89,-240.00
1946.95,-945.00
1948.01,-114.00
1949.07,168.00
1950.13,-132.00
1951.19,328.00
1952.25,249.00
1953.30,-406.00
1954.36,362.00
1955.42,727.00
1956.48,223.00
1957.54,402.00
1958.59,97.00
1959.65,61.00
1960.71,141.00
1961.76,460.00
1962.82,833.00
1963.87,157.00
1964.93,93.00
1965.98,83.00
1967.04,-204.00
1968.09,413.00
1969.15,-416.00
1970.20,178.00
