ENLIGHTEN Version,1.6.8
Measurement ID,20190528-110227-248637-WP-00357
Serial Number,WP-00357
Label,Acetaminophen
Integration Time,7
Timestamp,2019-05-28 11:02:27.248637
Note,
Temperature,-99
CCD C0,801.1829833984375
CCD C1,0.12474799901247025
CCD C2,-2.2862799596623518e-05
CCD C3,4.907460215974879e-09
CCD Offset,0
CCD Gain,1.9
Laser Wavelength,785.0
Laser Enable,False
Laser Power,100.0
Laser Temperature,-99
Pixel Count,1952

Wavenumber,Processed
257.31,0.00
259.25,0.00
261.19,0.00
263.13,651.00
265.07,-228.00
267.01,277.00
268.95,-218.00
270.88,-718.00
272.82,347.00
274.75,593.00
276.68,655.00
278.61,343.00
280.54,89.00
282.46,-614.00
284.39,491.00
286.31,5.00
288.24,340.00
290.16,377.00
292.08,116.00
294.00,-168.00
295.92,-713.00
297.83,-366.00
299.75,137.00
301.66,-262.00
303.58,-345.00
305.49,688.00
307.40,-384.00
309.31,63.00
311.22,32.00
313.12,199.00
315.03,785.00
316.93,-30.00
318.83,443.00
320.73,-35.00
322.63,406.00
324.53,-601.00
326.43,30.00
328.33,215.00
330.22,380.00
332.12,642.00
334.01,362.00
335.90,446.00
337.79,758.00
339.68,313.00
341.57,268.00
343.45,134.00
345.34,286.00
347.22,-163.00
349.10,405.00
350.98,1085.00
352.86,685.00
354.74,1160.00
356.62,-166.00
358.50,248.00
360.37,422.00
362.24,816.00
364.12,1090.00
365.99,1489.00
367.86,1133.00
369.73,2052.00
371.59,1977.00
373.46,2320.00
375.33,1826.00
377.19,3370.00
379.05,4214.00
380.91,4478.00
382.77,4809.00
384.63,6619.00
386.49,6770.00
388.35,9263.00
390.20,8995.00
392.06,10607.00
393.91,9341.00
395.76,11171.00
397.61,9582.00
399.46,10658.00
401.31,8860.00
403.15,9670.00
405.00,8752.00
406.84,9232.00
408.69,8543.00
410.53,9068.00
412.37,8261.00
414.21,8966.00
416.05,7541.00
417.88,7167.00
419.72,6451.00
421.55,7454.00
423.39,6574.00
425.22,6399.00
427.05,6595.00
428.88,6245.00
430.71,6793.00
432.54,6176.00
434.36,6350.00
436.19,5738.00
438.01,5960.00
439.83,7156.00
441.65,5291.00
443.48,6902.00
445.29,7856.00
447.11,7338.00
448.93,7808.00
450.74,7700.00
452.56,7244.00
454.37,8338.00
456.18,7862.00
457.99,7971.00
459.80,8020.00
461.61,7559.00
463.42,8903.00
465.23,10070.00
467.03,8720.00
468.83,9364.00
470.64,8470.00
472.44,9351.00
474.24,7466.00
476.04,7585.00
477.84,7554.00
479.63,7953.00
481.43,7621.00
483.22,7396.00
485.02,7561.00
486.81,7867.00
488.60,8825.00
490.39,7899.00
492.18,7424.00
493.96,7827.00
495.75,7551.00
497.54,7912.00
499.32,8465.00
501.10,9825.00
502.88,8554.00
504.67,9063.00
506.45,8950.00
508.22,10037.00
510.00,7980.00
511.78,8269.00
513.55,7529.00
515.33,7576.00
517.10,7269.00
518.87,8506.00
520.64,6715.00
522.41,7455.00
524.18,7363.00
525.94,7778.00
527.71,7282.00
529.47,7739.00
531.24,7228.00
533.00,7839.00
534.76,7172.00
536.52,7398.00
538.28,7394.00
540.04,7116.00
541.80,6762.00
543.55,6848.00
545.31,6646.00
547.06,8070.00
548.81,7465.00
550.56,7514.00
552.31,7771.00
554.06,8299.00
555.81,7499.00
557.56,8080.00
559.30,6931.00
561.05,7914.00
562.79,7151.00
564.53,8621.00
566.28,7070.00
568.02,8595.00
569.75,8193.00
571.49,7314.00
573.23,8201.00
574.97,8190.00
576.70,7773.00
578.43,7927.00
580.17,7083.00
581.90,7636.00
583.63,7887.00
585.36,8272.00
587.09,8960.00
588.81,8231.00
590.54,8585.00
592.26,8689.00
593.99,8493.00
595.71,9346.00
597.43,9100.00
599.15,10738.00
600.87,10080.00
602.59,10080.00
604.31,10652.00
606.02,10796.00
607.74,10545.00
609.45,11064.00
611.17,10382.00
612.88,10458.00
614.59,10604.00
616.30,11076.00
618.01,10110.00
619.71,10568.00
621.42,9835.00
623.13,12162.00
624.83,11529.00
626.53,12611.00
628.24,12852.00
629.94,12646.00
631.64,11864.00
633.34,12534.00
635.04,12764.00
636.73,12507.00
638.43,12584.00
640.12,11941.00
641.82,13955.00
643.51,15179.00
645.20,15355.00
646.89,17862.00
648.58,18392.00
650.27,19883.00
651.96,17814.00
653.65,20079.00
655.33,18617.00
657.02,19335.00
658.70,17056.00
660.38,16443.00
662.06,14540.00
663.74,13252.00
665.42,14849.00
667.10,12804.00
668.78,11757.00
670.45,12791.00
672.13,10904.00
673.80,11596.00
675.48,11014.00
677.15,12933.00
678.82,11092.00
680.49,11512.00
682.16,10813.00
683.83,10964.00
685.49,11586.00
687.16,11445.00
688.82,11793.00
690.49,11008.00
692.15,10646.00
693.81,12075.00
695.47,11065.00
697.13,11227.00
698.79,11114.00
700.45,12898.00
702.11,12533.00
703.76,11758.00
705.42,11954.00
707.07,12581.00
708.72,12948.00
710.37,13411.00
712.02,13480.00
713.67,12281.00
715.32,12472.00
716.97,11798.00
718.62,11328.00
720.26,11328.00
721.91,10106.00
723.55,9587.00
725.19,10005.00
726.84,10395.00
728.48,11061.00
730.12,9409.00
731.75,10170.00
733.39,9093.00
735.03,9456.00
736.66,10165.00
738.30,9257.00
739.93,9409.00
741.57,9771.00
743.20,10630.00
744.83,9413.00
746.46,8779.00
748.09,8390.00
749.71,9304.00
751.34,8989.00
752.97,8784.00
754.59,8631.00
756.22,8614.00
757.84,8368.00
759.46,8352.00
761.08,8716.00
762.70,8666.00
764.32,7157.00
765.94,7980.00
767.56,8773.00
769.17,7994.00
770.79,8238.00
772.40,7694.00
774.01,7751.00
775.63,9174.00
777.24,9140.00
778.85,8132.00
780.46,8595.00
782.07,9353.00
783.67,10014.00
785.28,11850.00
786.88,9451.00
788.49,11721.00
790.09,13426.00
791.70,14832.00
793.30,16433.00
794.90,18004.00
796.50,21781.00
798.10,19037.00
799.69,20938.00
801.29,21278.00
802.89,19354.00
804.48,20058.00
806.08,17386.00
807.67,16930.00
809.26,14783.00
810.85,15329.00
812.44,14043.00
814.03,14118.00
815.62,13313.00
817.21,12812.00
818.79,13339.00
820.38,13018.00
821.96,12857.00
823.55,12683.00
825.13,13078.00
826.71,12802.00
828.29,13428.00
829.87,14562.00
831.45,12913.00
833.03,14462.00
834.61,13128.00
836.18,14457.00
837.76,14135.00
839.33,14753.00
840.91,14222.00
842.48,14695.00
844.05,14087.00
845.62,14530.00
847.19,14716.00
848.76,16477.00
850.33,17863.00
851.90,23643.00
853.46,24057.00
855.03,28543.00
856.59,28803.00
858.15,30467.00
859.72,31741.00
861.28,35486.00
862.84,31219.00
864.40,31223.00
865.96,28460.00
867.52,24838.00
869.07,23151.00
870.63,21778.00
872.18,18443.00
873.74,18713.00
875.29,16623.00
876.84,16055.00
878.40,13312.00
879.95,12113.00
881.50,13449.00
883.04,12629.00
884.59,9896.00
886.14,10666.00
887.69,10371.00
889.23,10596.00
890.78,10635.00
892.32,9883.00
893.86,9134.00
895.40,10177.00
896.94,9490.00
898.48,10927.00
900.02,9314.00
901.56,9090.00
903.10,9253.00
904.63,9141.00
906.17,9383.00
907.70,9968.00
909.24,9281.00
910.77,8659.00
912.30,8988.00
913.83,10787.00
915.36,10081.00
916.89,10668.00
918.42,9746.00
919.95,10240.00
921.48,10035.00
923.00,9282.00
924.53,9883.00
926.05,9218.00
927.57,9224.00
929.10,9880.00
930.62,9669.00
932.14,11387.00
933.66,10613.00
935.18,9987.00
936.70,9223.00
938.21,10490.00
939.73,9034.00
941.24,9852.00
942.76,8705.00
944.27,10045.00
945.79,10012.00
947.30,9568.00
948.81,9866.00
950.32,9630.00
951.83,9695.00
953.34,9944.00
954.84,8800.00
956.35,10341.00
957.86,10170.00
959.36,11355.00
960.87,10583.00
962.37,11691.00
963.87,11251.00
965.37,11553.00
966.88,11593.00
968.38,13546.00
969.87,11662.00
971.37,13468.00
972.87,12403.00
974.37,12524.00
975.86,14045.00
977.36,10414.00
978.85,10693.00
980.35,11068.00
981.84,11332.00
983.33,10040.00
984.82,10932.00
986.31,9641.00
987.80,9996.00
989.29,8374.00
990.77,8381.00
992.26,9348.00
993.75,8559.00
995.23,9044.00
996.72,8709.00
998.20,7760.00
999.68,9485.00
1001.16,8970.00
1002.64,9180.00
1004.12,10386.00
1005.60,8592.00
1007.08,9263.00
1008.56,9352.00
1010.04,9642.00
1011.51,9798.00
1012.99,9700.00
1014.46,8321.00
1015.93,10443.00
1017.41,8776.00
1018.88,9729.00
1020.35,9224.00
1021.82,9598.00
1023.29,9859.00
1024.76,9387.00
1026.23,9785.00
1027.69,9337.00
1029.16,9369.00
1030.62,8954.00
1032.09,8387.00
1033.55,9232.00
1035.02,7859.00
1036.48,8658.00
1037.94,8147.00
1039.40,9512.00
1040.86,8559.00
1042.32,8273.00
1043.78,7906.00
1045.23,8612.00
1046.69,8619.00
1048.15,7973.00
1049.60,8022.00
1051.05,8388.00
1052.51,7419.00
1053.96,8216.00
1055.41,7064.00
1056.86,8327.00
1058.31,7216.00
1059.76,7541.00
1061.21,6781.00
1062.66,7360.00
1064.10,7474.00
1065.55,7563.00
1067.00,8249.00
1068.44,7370.00
1069.88,7613.00
1071.33,7337.00
1072.77,6598.00
1074.21,7438.00
1075.65,7034.00
1077.09,7583.00
1078.53,8201.00
1079.97,7550.00
1081.41,7326.00
1082.84,8380.00
1084.28,7143.00
1085.71,7120.00
1087.15,8082.00
1088.58,8413.00
1090.02,7588.00
1091.45,8145.00
1092.88,6224.00
1094.31,7791.00
1095.74,8073.00
1097.17,8711.00
1098.60,8801.00
1100.02,9088.00
1101.45,9757.00
1102.88,9223.00
1104.30,9250.00
1105.73,10234.00
1107.15,9516.00
1108.57,9555.00
1109.99,8816.00
1111.42,10938.00
1112.84,8544.00
1114.26,9276.00
1115.68,9115.00
1117.09,9015.00
1118.51,10148.00
1119.93,10127.00
1121.34,8820.00
1122.76,9425.00
1124.17,8552.00
1125.59,9130.00
1127.00,8903.00
1128.41,9496.00
1129.82,8448.00
1131.24,8584.00
1132.65,8526.00
1134.05,8931.00
1135.46,8455.00
1136.87,9768.00
1138.28,7915.00
1139.68,9579.00
1141.09,8164.00
1142.50,8246.00
1143.90,7940.00
1145.30,8762.00
1146.71,9204.00
1148.11,9091.00
1149.51,8579.00
1150.91,9330.00
1152.31,7534.00
1153.71,9209.00
1155.11,10166.00
1156.50,10649.00
1157.90,11294.00
1159.30,10865.00
1160.69,12986.00
1162.08,14696.00
1163.48,14193.00
1164.87,13359.00
1166.26,15690.00
1167.66,15523.00
1169.05,13493.00
1170.44,16293.00
1171.83,14443.00
1173.21,16597.00
1174.60,15638.00
1175.99,17376.00
1177.38,17032.00
1178.76,16204.00
1180.15,15497.00
1181.53,15652.00
1182.92,14057.00
1184.30,13568.00
1185.68,11990.00
1187.06,14031.00
1188.44,11666.00
1189.82,11884.00
1191.20,11004.00
1192.58,12354.00
1193.96,10872.00
1195.34,11151.00
1196.71,10583.00
1198.09,9173.00
1199.46,11002.00
1200.84,10976.00
1202.21,11010.00
1203.58,10662.00
1204.96,9950.00
1206.33,10760.00
1207.70,12015.00
1209.07,11586.00
1210.44,11858.00
1211.81,12076.00
1213.17,13278.00
1214.54,12717.00
1215.91,12592.00
1217.27,14477.00
1218.64,14119.00
1220.00,16507.00
1221.37,14538.00
1222.73,15085.00
1224.09,17269.00
1225.45,18717.00
1226.82,19403.00
1228.18,20434.00
1229.54,21972.00
1230.89,22563.00
1232.25,22997.00
1233.61,23155.00
1234.97,24339.00
1236.32,25990.00
1237.68,26321.00
1239.03,24773.00
1240.39,25775.00
1241.74,24275.00
1243.09,25500.00
1244.45,25453.00
1245.80,25224.00
1247.15,25135.00
1248.50,26141.00
1249.85,23984.00
1251.20,23572.00
1252.54,22355.00
1253.89,21503.00
1255.24,21154.00
1256.58,20593.00
1257.93,18631.00
1259.27,18268.00
1260.62,17717.00
1261.96,17561.00
1263.30,16482.00
1264.64,17909.00
1265.98,17024.00
1267.33,16456.00
1268.67,17340.00
1270.00,18206.00
1271.34,16343.00
1272.68,16985.00
1274.02,15975.00
1275.35,16505.00
1276.69,17412.00
1278.03,17173.00
1279.36,16838.00
1280.69,16440.00
1282.03,15503.00
1283.36,15564.00
1284.69,16075.00
1286.02,15118.00
1287.35,15156.00
1288.68,15481.00
1290.01,14895.00
1291.34,15509.00
1292.67,15065.00
1294.00,14291.00
1295.32,12275.00
1296.65,12843.00
1297.97,12088.00
1299.30,12444.00
1300.62,12487.00
1301.94,11798.00
1303.27,12904.00
1304.59,11602.00
1305.91,11513.00
1307.23,12406.00
1308.55,13466.00
1309.87,12699.00
1311.19,15282.00
1312.51,15855.00
1313.82,16612.00
1315.14,16190.00
1316.46,18199.00
1317.77,19912.00
1319.09,19916.00
1320.40,22358.00
1321.72,21744.00
1323.03,20338.00
1324.34,22402.00
1325.65,23793.00
1326.96,24338.00
1328.27,23187.00
1329.58,23747.00
1330.89,22508.00
1332.20,23655.00
1333.51,24317.00
1334.82,22150.00
1336.12,22119.00
1337.43,21515.00
1338.73,20510.00
1340.04,19138.00
1341.34,20784.00
1342.65,19387.00
1343.95,19715.00
1345.25,16670.00
1346.55,16824.00
1347.85,15568.00
1349.15,15679.00
1350.45,15698.00
1351.75,14903.00
1353.05,14639.00
1354.35,15142.00
1355.65,13677.00
1356.94,14161.00
1358.24,13935.00
1359.53,13992.00
1360.83,13933.00
1362.12,15504.00
1363.42,14385.00
1364.71,15732.00
1366.00,16130.00
1367.29,15669.00
1368.58,16088.00
1369.87,16556.00
1371.16,16800.00
1372.45,17200.00
1373.74,16581.00
1375.03,17016.00
1376.32,16151.00
1377.60,17235.00
1378.89,17317.00
1380.17,16430.00
1381.46,15907.00
1382.74,15163.00
1384.03,15650.00
1385.31,16244.00
1386.59,15381.00
1387.87,15126.00
1389.15,14275.00
1390.43,12603.00
1391.71,13621.00
1392.99,13428.00
1394.27,13502.00
1395.55,11744.00
1396.83,12706.00
1398.11,11892.00
1399.38,11740.00
1400.66,11531.00
1401.93,10448.00
1403.21,11460.00
1404.48,11810.00
1405.75,11349.00
1407.03,11165.00
1408.30,11062.00
1409.57,11808.00
1410.84,10301.00
1412.11,10343.00
1413.38,10483.00
1414.65,11574.00
1415.92,10196.00
1417.19,11054.00
1418.46,10283.00
1419.72,11302.00
1420.99,10349.00
1422.25,12286.00
1423.52,11788.00
1424.78,11398.00
1426.05,9487.00
1427.31,11989.00
1428.57,11731.00
1429.84,11157.00
1431.10,12370.00
1432.36,11245.00
1433.62,11190.00
1434.88,12475.00
1436.14,10661.00
1437.40,11854.00
1438.65,11745.00
1439.91,11672.00
1441.17,11937.00
1442.43,13055.00
1443.68,11977.00
1444.94,11505.00
1446.19,12308.00
1447.44,12574.00
1448.70,13166.00
1449.95,11644.00
1451.20,12438.00
1452.46,12630.00
1453.71,11734.00
1454.96,12088.00
1456.21,10142.00
1457.46,12120.00
1458.71,11808.00
1459.95,12703.00
1461.20,10915.00
1462.45,12197.00
1463.70,12017.00
1464.94,11977.00
1466.19,12019.00
1467.43,12229.00
1468.68,12311.00
1469.92,11185.00
1471.16,11089.00
1472.41,11688.00
1473.65,11099.00
1474.89,11311.00
1476.13,9575.00
1477.37,10677.00
1478.61,10919.00
1479.85,10501.00
1481.09,10038.00
1482.33,11595.00
1483.57,10683.00
1484.80,9911.00
1486.04,11926.00
1487.28,10129.00
1488.51,10629.00
1489.75,10808.00
1490.98,10569.00
1492.21,11753.00
1493.45,10147.00
1494.68,11300.00
1495.91,10383.00
1497.14,10183.00
1498.37,10622.00
1499.61,10927.00
1500.84,12046.00
1502.06,11117.00
1503.29,10887.00
1504.52,11492.00
1505.75,11017.00
1506.98,11092.00
1508.20,12249.00
1509.43,11388.00
1510.66,11923.00
1511.88,11695.00
1513.11,11718.00
1514.33,11474.00
1515.55,11107.00
1516.78,12152.00
1518.00,10467.00
1519.22,11576.00
1520.44,11052.00
1521.66,11050.00
1522.88,10633.00
1524.10,10391.00
1525.32,11569.00
1526.54,9781.00
1527.76,10974.00
1528.98,10644.00
1530.19,11522.00
1531.41,10619.00
1532.63,10179.00
1533.84,10521.00
1535.06,10886.00
1536.27,10404.00
1537.48,10540.00
1538.70,9907.00
1539.91,11381.00
1541.12,12351.00
1542.33,11849.00
1543.55,11723.00
1544.76,10099.00
1545.97,10689.00
1547.18,12111.00
1548.39,10399.00
1549.59,12869.00
1550.80,13134.00
1552.01,13072.00
1553.22,12473.00
1554.42,12629.00
1555.63,14107.00
1556.84,13525.00
1558.04,14505.00
1559.24,14740.00
1560.45,13815.00
1561.65,13900.00
1562.86,15118.00
1564.06,14116.00
1565.26,13705.00
1566.46,14405.00
1567.66,15010.00
1568.86,14016.00
1570.06,15500.00
1571.26,14205.00
1572.46,14347.00
1573.66,14283.00
1574.86,13083.00
1576.05,11852.00
1577.25,13352.00
1578.45,12077.00
1579.64,13255.00
1580.84,11139.00
1582.03,11566.00
1583.23,12332.00
1584.42,11860.00
1585.61,11386.00
1586.81,11867.00
1588.00,9872.00
1589.19,11369.00
1590.38,11765.00
1591.57,12265.00
1592.76,12241.00
1593.95,13976.00
1595.14,12044.00
1596.33,12437.00
1597.52,14077.00
1598.71,16019.00
1599.90,15709.00
1601.08,15889.00
1602.27,15235.00
1603.45,17940.00
1604.64,17335.00
1605.83,18584.00
1607.01,17914.00
1608.19,18416.00
1609.38,21023.00
1610.56,18706.00
1611.74,20291.00
1612.92,20383.00
1614.11,19870.00
1615.29,21449.00
1616.47,19315.00
1617.65,19711.00
1618.83,21524.00
1620.01,19798.00
1621.18,20424.00
1622.36,21175.00
1623.54,19791.00
1624.72,18801.00
1625.89,18687.00
1627.07,19907.00
1628.25,18424.00
1629.42,18146.00
1630.60,17880.00
1631.77,17420.00
1632.94,16875.00
1634.12,18774.00
1635.29,17830.00
1636.46,18410.00
1637.63,18761.00
1638.80,17897.00
1639.98,18667.00
1641.15,19604.00
1642.32,18662.00
1643.49,17054.00
1644.65,18323.00
1645.82,18940.00
1646.99,17956.00
1648.16,17564.00
1649.33,16986.00
1650.49,17263.00
1651.66,17669.00
1652.82,16214.00
1653.99,17406.00
1655.15,15934.00
1656.32,15552.00
1657.48,16358.00
1658.65,15689.00
1659.81,14898.00
1660.97,15160.00
1662.13,14764.00
1663.29,14414.00
1664.45,14142.00
1665.62,13466.00
1666.78,13230.00
1667.94,13418.00
1669.09,13208.00
1670.25,12625.00
1671.41,10918.00
1672.57,11412.00
1673.73,10212.00
1674.88,11046.00
1676.04,9820.00
1677.20,9458.00
1678.35,9551.00
1679.51,8839.00
1680.66,9131.00
1681.82,8349.00
1682.97,9055.00
1684.12,8774.00
1685.27,7400.00
1686.43,8238.00
1687.58,7890.00
1688.73,8158.00
1689.88,7047.00
1691.03,7613.00
1692.18,6807.00
1693.33,7105.00
1694.48,7084.00
1695.63,7331.00
1696.78,6466.00
1697.93,7607.00
1699.07,6755.00
1700.22,6732.00
1701.37,6325.00
1702.51,8108.00
1703.66,6650.00
1704.80,6436.00
1705.95,6184.00
1707.09,5266.00
1708.24,7389.00
1709.38,5908.00
1710.52,6393.00
1711.67,6448.00
1712.81,5573.00
1713.95,7179.00
1715.09,5600.00
1716.23,6044.00
1717.37,5420.00
1718.51,6002.00
1719.65,6295.00
1720.79,6677.00
1721.93,6711.00
1723.07,5950.00
1724.20,6963.00
1725.34,6628.00
1726.48,5635.00
1727.62,6078.00
1728.75,7137.00
1729.89,5845.00
1731.02,7081.00
1732.16,6744.00
1733.29,5945.00
1734.43,5824.00
1735.56,7696.00
1736.69,5965.00
1737.82,5869.00
1738.96,6316.00
1740.09,6480.00
1741.22,6738.00
1742.35,6634.00
1743.48,4956.00
1744.61,6260.00
1745.74,6473.00
1746.87,6359.00
1748.00,6690.00
1749.13,5894.00
1750.25,6303.00
1751.38,5988.00
1752.51,6032.00
1753.64,6643.00
1754.76,6668.00
1755.89,6572.00
1757.01,7145.00
1758.14,6526.00
1759.26,5952.00
1760.39,6043.00
1761.51,5738.00
1762.63,7043.00
1763.76,6727.00
1764.88,6173.00
1766.00,7198.00
1767.12,6888.00
1768.24,5122.00
1769.37,6450.00
1770.49,6097.00
1771.61,6975.00
1772.73,5647.00
1773.85,6775.00
1774.96,6202.00
1776.08,6884.00
1777.20,5727.00
1778.32,6213.00
1779.44,6239.00
1780.55,6825.00
1781.67,7138.00
1782.78,7413.00
1783.90,6807.00
1785.01,6099.00
1786.13,7159.00
1787.24,5424.00
1788.36,6440.00
1789.47,6431.00
1790.58,5095.00
1791.70,5938.00
1792.81,6493.00
1793.92,5940.00
1795.03,5443.00
1796.14,6138.00
1797.26,5073.00
1798.37,5601.00
1799.48,5855.00
1800.58,6533.00
1801.69,4590.00
1802.80,5381.00
1803.91,6551.00
1805.02,5750.00
1806.13,5897.00
1807.23,5178.00
1808.34,5715.00
1809.45,5044.00
1810.55,5811.00
1811.66,6456.00
1812.76,5384.00
1813.87,6036.00
1814.97,5770.00
1816.08,5778.00
1817.18,5892.00
1818.28,5299.00
1819.39,6014.00
1820.49,5895.00
1821.59,4996.00
1822.69,5459.00
1823.79,6062.00
1824.90,4929.00
1826.00,4920.00
1827.10,5996.00
1828.20,3796.00
1829.30,4611.00
1830.39,4599.00
1831.49,5090.00
1832.59,4634.00
1833.69,4984.00
1834.79,5386.00
1835.88,4629.00
1836.98,4500.00
1838.08,5455.00
1839.17,4735.00
1840.27,5112.00
1841.36,4700.00
1842.46,4917.00
1843.55,4463.00
1844.65,4514.00
1845.74,4917.00
1846.83,4742.00
1847.93,4694.00
1849.02,5403.00
1850.11,4499.00
1851.20,4945.00
1852.30,4370.00
1853.39,5190.00
1854.48,4493.00
1855.57,4818.00
1856.66,4133.00
1857.75,4994.00
1858.84,3545.00
1859.93,4332.00
1861.01,5414.00
1862.10,3280.00
1863.19,4962.00
1864.28,4054.00
1865.37,4191.00
1866.45,5150.00
1867.54,4199.00
1868.62,5062.00
1869.71,4249.00
1870.79,3875.00
1871.88,4346.00
1872.96,4538.00
1874.05,3960.00
1875.13,4450.00
1876.22,4166.00
1877.30,4226.00
1878.38,4291.00
1879.46,3546.00
1880.55,4666.00
1881.63,4105.00
