ENLIGHTEN Version,1.6.8
Measurement ID,20190528-082131-813280-WP-00391
Serial Number,WP-00391
Label,Acetaminophen
Integration Time,500
Timestamp,2019-05-28 08:21:31.813280
Note,
Temperature,-99
CCD C0,789.0726928710938
CCD C1,0.16069164872169495
CCD C2,5.064120159659069e-06
CCD C3,-4.444800083547307e-09
CCD Offset,0
CCD Gain,1.9
Laser Wavelength,785.0
Laser Enable,False
Laser Power,100.0
Laser Temperature,-99
Pixel Count,2048

Wavenumber,Processed
65.75,748.00
68.33,826.00
70.91,1073.00
73.49,1353.00
76.07,1913.00
78.64,2462.00
81.22,2859.00
83.79,3176.00
86.37,3198.00
88.94,3041.00
91.51,2646.00
94.09,2390.00
96.66,2236.00
99.23,2148.00
101.79,2177.00
104.36,2090.00
106.93,2096.00
109.50,1970.00
112.06,1963.00
114.63,1963.00
117.19,1987.00
119.75,2221.00
122.31,2296.00
124.87,2453.00
127.43,2559.00
129.99,2563.00
132.55,2572.00
135.11,2531.00
137.66,2630.00
140.22,2747.00
142.78,2980.00
145.33,3298.00
147.88,3415.00
150.43,3615.00
152.98,3393.00
155.53,3252.00
158.08,3015.00
160.63,2903.00
163.18,2940.00
165.73,2892.00
168.27,2979.00
170.82,2969.00
173.36,3022.00
175.90,3047.00
178.45,3088.00
180.99,3243.00
183.53,3265.00
186.07,3503.00
188.61,3685.00
191.14,3960.00
193.68,4334.00
196.22,4761.00
198.75,5204.00
201.29,5650.00
203.82,6314.00
206.35,7159.00
208.88,8005.00
211.41,8541.00
213.94,8524.00
216.47,8144.00
219.00,7424.00
221.53,6690.00
224.05,6164.00
226.58,5663.00
229.10,5443.00
231.63,5122.00
234.15,5050.00
236.67,4952.00
239.19,4848.00
241.71,4860.00
244.23,4729.00
246.75,4689.00
249.27,4769.00
251.78,4725.00
254.30,4748.00
256.81,4722.00
259.33,4775.00
261.84,4650.00
264.35,4783.00
266.86,4773.00
269.38,4765.00
271.88,4788.00
274.39,4765.00
276.90,4869.00
279.41,4843.00
281.91,4894.00
284.42,4927.00
286.92,4915.00
289.43,5046.00
291.93,5076.00
294.43,5126.00
296.93,5071.00
299.43,5165.00
301.93,5321.00
304.43,5319.00
306.92,5492.00
309.42,5527.00
311.91,5728.00
314.41,5974.00
316.90,6407.00
319.39,7320.00
321.89,8233.00
324.38,9539.00
326.87,10181.00
329.36,10045.00
331.84,9370.00
334.33,8657.00
336.82,8207.00
339.30,7423.00
341.79,6781.00
344.27,6042.00
346.75,5640.00
349.24,5475.00
351.72,5355.00
354.20,5351.00
356.68,5297.00
359.16,5338.00
361.63,5295.00
364.11,5382.00
366.59,5472.00
369.06,5547.00
371.53,5655.00
374.01,5737.00
376.48,5899.00
378.95,6339.00
381.42,6960.00
383.89,8469.00
386.36,10935.00
388.83,13469.00
391.29,14016.00
393.76,12149.00
396.23,9559.00
398.69,7816.00
401.15,6805.00
403.62,6360.00
406.08,6309.00
408.54,6623.00
411.00,6704.00
413.46,6572.00
415.91,6062.00
418.37,5817.00
420.83,5648.00
423.28,5624.00
425.74,5625.00
428.19,5530.00
430.64,5621.00
433.10,5515.00
435.55,5612.00
438.00,5572.00
440.45,5536.00
442.90,5686.00
445.34,5734.00
447.79,5866.00
450.24,6145.00
452.68,6347.00
455.12,6773.00
457.57,7119.00
460.01,8002.00
462.45,8684.00
464.89,8946.00
467.33,8619.00
469.77,7795.00
472.21,7231.00
474.64,6567.00
477.08,6326.00
479.52,6210.00
481.95,6052.00
484.38,5974.00
486.82,5878.00
489.25,5899.00
491.68,5914.00
494.11,6012.00
496.54,6358.00
498.96,7117.00
501.39,8314.00
503.82,8805.00
506.24,8374.00
508.67,7255.00
511.09,6483.00
513.52,6204.00
515.94,5997.00
518.36,5931.00
520.78,5891.00
523.20,5837.00
525.62,5852.00
528.03,5780.00
530.45,5849.00
532.87,5697.00
535.28,5860.00
537.69,5758.00
540.11,5754.00
542.52,5766.00
544.93,5764.00
547.34,5857.00
549.75,5716.00
552.16,5802.00
554.57,5809.00
556.98,5842.00
559.38,5870.00
561.79,5792.00
564.19,5902.00
566.59,5894.00
569.00,5813.00
571.40,5893.00
573.80,5844.00
576.20,5944.00
578.60,5931.00
581.00,5910.00
583.39,6018.00
585.79,6056.00
588.19,6102.00
590.58,6125.00
592.98,6259.00
595.37,6403.00
597.76,6800.00
600.15,7408.00
602.54,7829.00
604.93,8032.00
607.32,7643.00
609.71,7254.00
612.09,6950.00
614.48,6759.00
616.87,6808.00
619.25,6995.00
621.63,7706.00
624.02,8515.00
626.40,9285.00
628.78,9394.00
631.16,8934.00
633.54,8221.00
635.91,7790.00
638.29,7524.00
640.67,7679.00
643.04,8372.00
645.42,10137.00
647.79,13143.00
650.16,16016.00
652.54,16376.00
654.91,14306.00
657.28,11662.00
659.65,9695.00
662.02,8365.00
664.38,7702.00
666.75,7436.00
669.12,7250.00
671.48,7267.00
673.84,7252.00
676.21,7373.00
678.57,7472.00
680.93,7611.00
683.29,7844.00
685.65,7856.00
688.01,7981.00
690.37,7929.00
692.73,7772.00
695.08,7892.00
697.44,7757.00
699.79,7735.00
702.14,7814.00
704.50,8222.00
706.85,9025.00
709.20,10082.00
711.55,10506.00
713.90,9874.00
716.25,9083.00
718.60,8300.00
720.94,7838.00
723.29,7790.00
725.63,7610.00
727.98,7736.00
730.32,7827.00
732.66,7736.00
735.00,7734.00
737.34,7637.00
739.68,7596.00
742.02,7497.00
744.36,7318.00
746.70,7296.00
749.03,7186.00
751.37,7106.00
753.70,7076.00
756.04,6931.00
758.37,6907.00
760.70,6833.00
763.03,6797.00
765.36,6767.00
767.69,6840.00
770.02,6733.00
772.35,6813.00
774.67,6853.00
777.00,6945.00
779.32,7017.00
781.65,7118.00
783.97,7579.00
786.29,7875.00
788.61,8907.00
790.93,10950.00
793.25,13896.00
795.57,17247.00
797.89,18836.00
800.21,17878.00
802.52,15461.00
804.84,12904.00
807.15,11001.00
809.47,9554.00
811.78,8826.00
814.09,8302.00
816.40,8288.00
818.71,8496.00
821.02,8623.00
823.33,8938.00
825.64,9004.00
827.94,9331.00
830.25,9798.00
832.55,10534.00
834.86,10802.00
837.16,10438.00
839.46,9765.00
841.77,9077.00
844.07,9018.00
846.37,9348.00
848.66,10566.00
850.96,13092.00
853.26,17570.00
855.56,23483.00
857.85,27387.00
860.15,26698.00
862.44,22223.00
864.73,17477.00
867.02,13502.00
869.31,10683.00
871.60,8942.00
873.89,8055.00
876.18,7525.00
878.47,7235.00
880.76,7034.00
883.04,6897.00
885.33,6828.00
887.61,6817.00
889.89,6747.00
892.18,6616.00
894.46,6652.00
896.74,6563.00
899.02,6635.00
901.30,6608.00
903.58,6661.00
905.85,6702.00
908.13,6609.00
910.40,6768.00
912.68,6728.00
914.95,6709.00
917.23,6631.00
919.50,6689.00
921.77,6715.00
924.04,6606.00
926.31,6656.00
928.58,6582.00
930.84,6575.00
933.11,6597.00
935.38,6576.00
937.64,6539.00
939.91,6484.00
942.17,6601.00
944.43,6699.00
946.69,6786.00
948.95,6893.00
951.21,6867.00
953.47,6848.00
955.73,6711.00
957.99,6870.00
960.25,7104.00
962.50,7367.00
964.76,8406.00
967.01,9441.00
969.26,10050.00
971.51,9896.00
973.77,8959.00
976.02,8167.00
978.27,7476.00
980.51,7144.00
982.76,6973.00
985.01,6753.00
987.26,6673.00
989.50,6692.00
991.75,6785.00
993.99,6718.00
996.23,6834.00
998.47,6953.00
1000.71,7028.00
1002.95,7062.00
1005.19,7305.00
1007.43,7425.00
1009.67,7582.00
1011.91,7770.00
1014.14,8011.00
1016.38,8127.00
1018.61,8142.00
1020.84,7980.00
1023.08,7730.00
1025.31,7552.00
1027.54,7336.00
1029.77,7243.00
1032.00,7203.00
1034.23,7201.00
1036.45,7136.00
1038.68,7106.00
1040.91,6953.00
1043.13,6959.00
1045.35,6982.00
1047.58,6861.00
1049.80,6831.00
1052.02,6732.00
1054.24,6684.00
1056.46,6710.00
1058.68,6565.00
1060.90,6690.00
1063.11,6531.00
1065.33,6464.00
1067.55,6601.00
1069.76,6572.00
1071.97,6608.00
1074.19,6548.00
1076.40,6584.00
1078.61,6506.00
1080.82,6540.00
1083.03,6621.00
1085.24,6567.00
1087.44,6629.00
1089.65,6542.00
1091.86,6665.00
1094.06,6823.00
1096.27,7011.00
1098.47,7335.00
1100.67,7952.00
1102.87,8562.00
1105.07,8966.00
1107.27,8926.00
1109.47,8539.00
1111.67,7987.00
1113.87,7535.00
1116.07,7176.00
1118.26,7015.00
1120.46,6979.00
1122.65,6950.00
1124.84,7066.00
1127.04,6882.00
1129.23,6908.00
1131.42,6684.00
1133.61,6666.00
1135.80,6597.00
1137.98,6554.00
1140.17,6602.00
1142.36,6589.00
1144.54,6717.00
1146.73,6628.00
1148.91,6755.00
1151.09,6776.00
1153.28,6717.00
1155.46,6965.00
1157.64,7077.00
1159.82,7597.00
1162.00,8699.00
1164.17,11288.00
1166.35,15121.00
1168.53,17663.00
1170.70,17002.00
1172.88,13914.00
1175.05,11147.00
1177.22,9101.00
1179.40,7992.00
1181.57,7465.00
1183.74,7148.00
1185.91,7237.00
1188.07,7072.00
1190.24,7059.00
1192.41,7166.00
1194.57,7094.00
1196.74,7128.00
1198.90,7164.00
1201.07,7230.00
1203.23,7324.00
1205.39,7442.00
1207.55,7633.00
1209.71,7833.00
1211.87,8416.00
1214.03,8769.00
1216.19,9261.00
1218.34,9828.00
1220.50,10384.00
1222.66,11169.00
1224.81,11734.00
1226.96,12572.00
1229.11,13672.00
1231.27,15728.00
1233.42,18884.00
1235.57,22077.00
1237.72,23563.00
1239.86,22128.00
1242.01,19087.00
1244.16,15742.00
1246.30,13156.00
1248.45,11685.00
1250.59,11085.00
1252.74,11485.00
1254.88,12216.00
1257.02,12692.00
1259.16,12355.00
1261.30,11436.00
1263.44,10473.00
1265.58,9568.00
1267.71,9613.00
1269.85,10255.00
1271.99,11339.00
1274.12,13122.00
1276.25,15002.00
1278.39,16123.00
1280.52,15698.00
1282.65,14181.00
1284.78,12344.00
1286.91,10711.00
1289.04,9750.00
1291.17,9250.00
1293.30,8828.00
1295.42,8726.00
1297.55,8719.00
1299.67,8803.00
1301.80,8839.00
1303.92,9014.00
1306.04,9097.00
1308.16,9439.00
1310.28,9999.00
1312.40,10749.00
1314.52,12501.00
1316.64,15040.00
1318.76,18968.00
1320.87,23496.00
1322.99,27296.00
1325.10,28779.00
1327.22,27668.00
1329.33,24921.00
1331.44,21659.00
1333.55,18558.00
1335.66,15871.00
1337.77,13694.00
1339.88,12347.00
1341.99,11404.00
1344.10,10901.00
1346.20,10422.00
1348.31,10335.00
1350.41,10275.00
1352.52,10259.00
1354.62,10637.00
1356.72,10996.00
1358.82,11662.00
1360.92,12258.00
1363.02,13410.00
1365.12,14882.00
1367.22,16357.00
1369.31,18022.00
1371.41,18665.00
1373.51,18525.00
1375.60,17468.00
1377.69,15755.00
1379.79,14360.00
1381.88,12873.00
1383.97,11703.00
1386.06,10942.00
1388.15,10238.00
1390.24,9933.00
1392.33,9458.00
1394.41,9285.00
1396.50,9069.00
1398.59,8883.00
1400.67,8756.00
1402.75,8659.00
1404.84,8619.00
1406.92,8573.00
1409.00,8550.00
1411.08,8458.00
1413.16,8490.00
1415.24,8533.00
1417.32,8520.00
1419.39,8624.00
1421.47,8744.00
1423.54,8765.00
1425.62,8816.00
1427.69,8946.00
1429.77,8942.00
1431.84,9060.00
1433.91,9135.00
1435.98,9247.00
1438.05,9319.00
1440.12,9546.00
1442.19,9608.00
1444.25,9771.00
1446.32,9726.00
1448.38,9714.00
1450.45,9412.00
1452.51,9227.00
1454.58,9015.00
1456.64,8770.00
1458.70,8594.00
1460.76,8457.00
1462.82,8247.00
1464.88,8231.00
1466.94,8104.00
1468.99,8124.00
1471.05,7991.00
1473.10,7951.00
1475.16,7960.00
1477.21,7877.00
1479.27,7890.00
1481.32,7744.00
1483.37,7776.00
1485.42,7818.00
1487.47,7744.00
1489.52,7884.00
1491.57,7761.00
1493.61,7825.00
1495.66,7833.00
1497.71,8081.00
1499.75,8144.00
1501.79,8483.00
1503.84,8858.00
1505.88,9126.00
1507.92,9275.00
1509.96,9236.00
1512.00,9420.00
1514.04,9568.00
1516.08,9686.00
1518.12,9416.00
1520.15,8995.00
1522.19,8572.00
1524.22,8234.00
1526.26,8211.00
1528.29,7960.00
1530.32,8002.00
1532.35,8076.00
1534.38,7888.00
1536.41,8095.00
1538.44,8144.00
1540.47,8267.00
1542.50,8505.00
1544.53,8587.00
1546.55,9181.00
1548.58,9517.00
1550.60,10370.00
1552.62,11298.00
1554.65,12621.00
1556.67,14070.00
1558.69,15212.00
1560.71,16045.00
1562.73,16045.00
1564.75,15623.00
1566.76,14802.00
1568.78,13571.00
1570.80,12392.00
1572.81,11427.00
1574.83,10580.00
1576.84,10002.00
1578.85,9426.00
1580.86,9138.00
1582.88,8987.00
1584.89,8915.00
1586.89,8872.00
1588.90,8993.00
1590.91,9204.00
1592.92,9555.00
1594.92,10159.00
1596.93,10890.00
1598.93,12095.00
1600.94,13765.00
1602.94,16039.00
1604.94,19064.00
1606.94,22498.00
1608.94,25353.00
1610.94,26348.00
1612.94,25946.00
1614.94,25467.00
1616.94,25086.00
1618.93,24287.00
1620.93,22231.00
1622.92,19358.00
1624.92,16308.00
1626.91,13944.00
1628.90,12571.00
1630.89,11945.00
1632.89,11833.00
1634.88,12131.00
1636.86,12710.00
1638.85,13961.00
1640.84,15512.00
1642.83,17681.00
1644.81,20249.00
1646.80,22507.00
1648.78,23290.00
1650.76,22396.00
1652.75,20792.00
1654.73,19134.00
1656.71,17644.00
1658.69,15863.00
1660.67,13855.00
1662.65,11903.00
1664.62,10435.00
1666.60,9403.00
1668.58,8812.00
1670.55,8427.00
1672.53,8010.00
1674.50,7719.00
1676.47,7514.00
1678.45,7289.00
1680.42,7235.00
1682.39,7034.00
1684.36,6925.00
1686.32,6842.00
1688.29,6730.00
1690.26,6720.00
1692.23,6683.00
1694.19,6629.00
1696.16,6600.00
1698.12,6637.00
1700.08,6561.00
1702.05,6464.00
1704.01,6509.00
1705.97,6432.00
1707.93,6419.00
1709.89,6413.00
1711.84,6398.00
1713.80,6339.00
1715.76,6210.00
1717.71,6390.00
1719.67,6223.00
1721.62,6173.00
1723.58,6286.00
1725.53,6184.00
1727.48,6240.00
1729.43,6079.00
1731.38,6179.00
1733.33,6160.00
1735.28,6092.00
1737.23,6096.00
1739.17,6092.00
1741.12,6115.00
1743.06,6087.00
1745.01,6098.00
1746.95,6054.00
1748.90,5995.00
1750.84,5987.00
1752.78,5935.00
1754.72,5953.00
1756.66,5954.00
1758.60,5914.00
1760.54,6007.00
1762.47,5951.00
1764.41,5958.00
1766.35,5908.00
1768.28,5902.00
1770.21,5885.00
1772.15,5855.00
1774.08,5865.00
1776.01,5802.00
1777.94,5775.00
1779.87,5775.00
1781.80,5804.00
1783.73,5769.00
1785.66,5743.00
1787.58,5776.00
1789.51,5735.00
1791.44,5771.00
1793.36,5680.00
1795.28,5743.00
1797.21,5746.00
1799.13,5674.00
1801.05,5757.00
1802.97,5676.00
1804.89,5702.00
1806.81,5608.00
1808.73,5617.00
1810.64,5731.00
1812.56,5686.00
1814.48,5616.00
1816.39,5602.00
1818.30,5659.00
1820.22,5735.00
1822.13,5620.00
1824.04,5669.00
1825.95,5521.00
1827.86,5587.00
1829.77,5589.00
1831.68,5619.00
1833.59,5641.00
1835.49,5640.00
1837.40,5584.00
1839.31,5595.00
1841.21,5560.00
1843.11,5508.00
1845.02,5542.00
1846.92,5604.00
1848.82,5623.00
1850.72,5460.00
1852.62,5522.00
1854.52,5580.00
1856.42,5450.00
1858.31,5398.00
1860.21,5464.00
1862.11,5305.00
1864.00,5424.00
1865.89,5394.00
1867.79,5259.00
1869.68,5371.00
1871.57,5363.00
1873.46,5367.00
1875.35,5299.00
1877.24,5327.00
1879.13,5334.00
1881.02,5282.00
1882.91,5291.00
1884.79,5253.00
1886.68,5242.00
1888.56,5219.00
1890.45,5195.00
1892.33,5188.00
1894.21,5188.00
1896.09,5262.00
1897.97,5186.00
1899.85,5224.00
1901.73,5235.00
1903.61,5089.00
1905.49,5213.00
1907.36,5148.00
1909.24,5101.00
1911.11,5082.00
1912.99,5147.00
1914.86,5046.00
1916.74,5071.00
1918.61,5117.00
1920.48,4996.00
1922.35,5069.00
1924.22,5079.00
1926.09,4968.00
1927.95,5004.00
1929.82,4945.00
1931.69,4981.00
1933.55,4967.00
1935.42,4972.00
1937.28,5012.00
1939.15,4838.00
1941.01,4900.00
1942.87,4913.00
1944.73,4915.00
1946.59,4851.00
1948.45,4881.00
1950.31,4866.00
1952.17,4879.00
1954.02,4881.00
1955.88,4886.00
1957.73,4771.00
1959.59,4824.00
1961.44,4790.00
1963.30,4844.00
1965.15,4750.00
1967.00,4839.00
1968.85,4799.00
1970.70,4769.00
1972.55,4769.00
1974.40,4668.00
1976.25,4727.00
1978.09,4678.00
1979.94,4712.00
1981.78,4721.00
1983.63,4642.00
1985.47,4653.00
1987.31,4583.00
1989.16,4662.00
1991.00,4639.00
1992.84,4606.00
1994.68,4554.00
1996.52,4522.00
1998.35,4558.00
2000.19,4477.00
2002.03,4588.00
2003.86,4467.00
2005.70,4465.00
2007.53,4465.00
2009.37,4437.00
2011.20,4495.00
2013.03,4380.00
2014.86,4440.00
2016.69,4417.00
2018.52,4414.00
2020.35,4406.00
2022.18,4410.00
2024.01,4402.00
2025.83,4408.00
2027.66,4358.00
2029.48,4399.00
2031.31,4309.00
2033.13,4285.00
2034.95,4247.00
2036.77,4296.00
2038.59,4264.00
2040.42,4196.00
2042.23,4162.00
2044.05,4138.00
2045.87,4238.00
2047.69,4190.00
2049.50,4169.00
2051.32,4152.00
2053.13,4124.00
2054.95,4137.00
2056.76,4121.00
2058.57,4159.00
2060.39,4174.00
2062.20,4067.00
2064.01,4150.00
2065.82,4049.00
2067.62,4112.00
2069.43,4093.00
2071.24,4036.00
2073.05,4036.00
2074.85,4009.00
2076.66,4063.00
2078.46,3960.00
2080.26,4017.00
2082.06,4046.00
2083.87,3966.00
2085.67,4014.00
2087.47,3977.00
2089.27,3943.00
2091.06,3938.00
2092.86,3939.00
2094.66,3981.00
2096.45,3929.00
2098.25,3966.00
2100.04,3926.00
2101.84,3923.00
2103.63,3786.00
2105.42,3820.00
2107.22,3892.00
2109.01,3840.00
2110.80,3806.00
2112.59,3805.00
2114.37,3789.00
2116.16,3833.00
2117.95,3747.00
2119.73,3681.00
2121.52,3753.00
2123.30,3715.00
2125.09,3793.00
2126.87,3673.00
2128.65,3700.00
2130.43,3638.00
2132.22,3676.00
2134.00,3647.00
2135.77,3653.00
2137.55,3605.00
2139.33,3609.00
2141.11,3550.00
2142.88,3581.00
2144.66,3590.00
2146.43,3613.00
2148.21,3550.00
2149.98,3550.00
2151.75,3495.00
2153.52,3516.00
2155.29,3499.00
2157.06,3545.00
2158.83,3501.00
2160.60,3475.00
2162.37,3514.00
2164.14,3498.00
2165.90,3548.00
2167.67,3449.00
2169.43,3476.00
2171.20,3444.00
2172.96,3476.00
2174.72,3455.00
2176.48,3402.00
2178.24,3429.00
2180.00,3401.00
2181.76,3406.00
2183.52,3431.00
2185.28,3381.00
2187.04,3447.00
2188.79,3329.00
2190.55,3387.00
2192.30,3396.00
2194.06,3370.00
2195.81,3392.00
2197.56,3332.00
2199.31,3334.00
2201.06,3267.00
2202.81,3312.00
2204.56,3392.00
2206.31,3309.00
2208.06,3287.00
2209.81,3260.00
2211.55,3313.00
2213.30,3277.00
2215.04,3277.00
2216.79,3242.00
2218.53,3191.00
2220.27,3250.00
2222.01,3217.00
2223.76,3240.00
2225.50,3235.00
2227.23,3216.00
2228.97,3191.00
2230.71,3183.00
2232.45,3209.00
2234.18,3205.00
2235.92,3176.00
2237.66,3205.00
2239.39,3219.00
2241.12,3155.00
2242.86,3128.00
2244.59,3165.00
2246.32,3128.00
2248.05,3127.00
2249.78,3175.00
2251.51,3128.00
2253.23,3152.00
2254.96,3098.00
2256.69,3083.00
2258.41,3087.00
2260.14,3003.00
2261.86,3104.00
2263.59,3053.00
2265.31,3119.00
2267.03,3081.00
2268.75,3070.00
2270.47,3087.00
2272.19,2980.00
2273.91,3036.00
2275.63,3043.00
2277.35,3069.00
2279.06,3077.00
2280.78,2952.00
2282.50,3022.00
2284.21,2958.00
2285.92,3007.00
2287.64,2970.00
2289.35,2946.00
2291.06,2939.00
2292.77,2920.00
2294.48,2922.00
2296.19,2908.00
2297.90,2939.00
2299.61,2906.00
2301.31,2922.00
2303.02,2884.00
2304.72,2902.00
2306.43,2922.00
2308.13,2837.00
2309.84,2927.00
2311.54,2863.00
2313.24,2823.00
2314.94,2886.00
2316.64,2857.00
2318.34,2843.00
2320.04,2825.00
2321.74,2878.00
2323.43,2773.00
2325.13,2804.00
2326.83,2787.00
2328.52,2827.00
2330.21,2810.00
2331.91,2817.00
2333.60,2791.00
2335.29,2792.00
2336.98,2783.00
2338.67,2803.00
2340.36,2796.00
2342.05,2817.00
2343.74,2829.00
2345.43,2806.00
2347.11,2812.00
2348.80,2749.00
2350.49,2799.00
2352.17,2749.00
2353.85,2716.00
2355.54,2730.00
2357.22,2785.00
2358.90,2785.00
2360.58,2742.00
2362.26,2717.00
2363.94,2752.00
2365.62,2683.00
2367.30,2683.00
2368.97,2677.00
2370.65,2646.00
2372.32,2650.00
2374.00,2622.00
2375.67,2625.00
2377.35,2660.00
2379.02,2697.00
2380.69,2664.00
2382.36,2635.00
2384.03,2637.00
2385.70,2621.00
2387.37,2641.00
2389.04,2612.00
2390.70,2648.00
2392.37,2612.00
2394.04,2594.00
2395.70,2633.00
2397.37,2584.00
2399.03,2611.00
2400.69,2562.00
2402.35,2576.00
2404.02,2577.00
2405.68,2523.00
2407.34,2580.00
2409.00,2546.00
2410.65,2555.00
2412.31,2477.00
2413.97,2496.00
2415.62,2531.00
2417.28,2461.00
2418.93,2525.00
2420.59,2461.00
2422.24,2483.00
2423.89,2500.00
2425.55,2436.00
2427.20,2464.00
2428.85,2417.00
2430.50,2422.00
2432.14,2413.00
2433.79,2445.00
2435.44,2436.00
2437.09,2430.00
2438.73,2367.00
2440.38,2465.00
2442.02,2470.00
2443.66,2434.00
2445.31,2465.00
2446.95,2449.00
2448.59,2453.00
2450.23,2498.00
2451.87,2447.00
2453.51,2466.00
2455.15,2487.00
2456.79,2417.00
2458.42,2523.00
2460.06,2493.00
2461.70,2461.00
2463.33,2441.00
2464.96,2459.00
2466.60,2508.00
2468.23,2464.00
2469.86,2489.00
2471.49,2464.00
2473.12,2441.00
2474.75,2481.00
2476.38,2447.00
2478.01,2525.00
2479.64,2436.00
2481.26,2458.00
2482.89,2404.00
2484.51,2369.00
2486.14,2423.00
2487.76,2339.00
2489.39,2400.00
