ENLIGHTEN Version,1.6.8
Measurement ID,20190528-081944-950123-WP-00391
Serial Number,WP-00391
Label,Ammonium Chloride
Integration Time,1000
Timestamp,2019-05-28 08:19:44.950123
Note,
Temperature,-99
CCD C0,789.0726928710938
CCD C1,0.16069164872169495
CCD C2,5.064120159659069e-06
CCD C3,-4.444800083547307e-09
CCD Offset,0
CCD Gain,1.9
Laser Wavelength,785.0
Laser Enable,False
Laser Power,100.0
Laser Temperature,-99
Pixel Count,2048

Wavenumber,Processed
65.75,100.00
68.33,52.00
70.91,110.00
73.49,84.00
76.07,112.00
78.64,150.00
81.22,152.00
83.79,226.00
86.37,241.00
88.94,262.00
91.51,279.00
94.09,302.00
96.66,307.00
99.23,267.00
101.79,330.00
104.36,307.00
106.93,394.00
109.50,391.00
112.06,389.00
114.63,491.00
117.19,459.00
119.75,574.00
122.31,672.00
124.87,877.00
127.43,1090.00
129.99,1329.00
132.55,1601.00
135.11,1830.00
137.66,2043.00
140.22,2172.00
142.78,2252.00
145.33,2387.00
147.88,2287.00
150.43,2473.00
152.98,2545.00
155.53,2680.00
158.08,2920.00
160.63,3095.00
163.18,3383.00
165.73,3580.00
168.27,3593.00
170.82,3557.00
173.36,3469.00
175.90,3292.00
178.45,3131.00
180.99,3108.00
183.53,2967.00
186.07,2990.00
188.61,2998.00
191.14,3028.00
193.68,3001.00
196.22,2903.00
198.75,2920.00
201.29,2744.00
203.82,2707.00
206.35,2607.00
208.88,2491.00
211.41,2407.00
213.94,2244.00
216.47,2208.00
219.00,2099.00
221.53,2013.00
224.05,1954.00
226.58,1883.00
229.10,1855.00
231.63,1712.00
234.15,1692.00
236.67,1660.00
239.19,1598.00
241.71,1631.00
244.23,1511.00
246.75,1477.00
249.27,1479.00
251.78,1375.00
254.30,1447.00
256.81,1405.00
259.33,1403.00
261.84,1312.00
264.35,1384.00
266.86,1363.00
269.38,1301.00
271.88,1346.00
274.39,1279.00
276.90,1369.00
279.41,1280.00
281.91,1314.00
284.42,1293.00
286.92,1265.00
289.43,1296.00
291.93,1289.00
294.43,1331.00
296.93,1344.00
299.43,1291.00
301.93,1335.00
304.43,1298.00
306.92,1270.00
309.42,1305.00
311.91,1338.00
314.41,1302.00
316.90,1296.00
319.39,1291.00
321.89,1297.00
324.38,1312.00
326.87,1260.00
329.36,1279.00
331.84,1332.00
334.33,1199.00
336.82,1243.00
339.30,1263.00
341.79,1274.00
344.27,1283.00
346.75,1253.00
349.24,1287.00
351.72,1217.00
354.20,1241.00
356.68,1196.00
359.16,1196.00
361.63,1173.00
364.11,1154.00
366.59,1186.00
369.06,1112.00
371.53,1090.00
374.01,1136.00
376.48,1105.00
378.95,1073.00
381.42,977.00
383.89,1059.00
386.36,972.00
388.83,1014.00
391.29,1052.00
393.76,922.00
396.23,945.00
398.69,959.00
401.15,958.00
403.62,970.00
406.08,896.00
408.54,975.00
411.00,970.00
413.46,1006.00
415.91,966.00
418.37,912.00
420.83,978.00
423.28,951.00
425.74,1002.00
428.19,979.00
430.64,1040.00
433.10,1023.00
435.55,1031.00
438.00,1063.00
440.45,1029.00
442.90,1105.00
445.34,1078.00
447.79,1063.00
450.24,1170.00
452.68,1063.00
455.12,1139.00
457.57,1129.00
460.01,1177.00
462.45,1188.00
464.89,1120.00
467.33,1196.00
469.77,1150.00
472.21,1222.00
474.64,1181.00
477.08,1218.00
479.52,1209.00
481.95,1213.00
484.38,1261.00
486.82,1217.00
489.25,1228.00
491.68,1219.00
494.11,1261.00
496.54,1246.00
498.96,1175.00
501.39,1215.00
503.82,1194.00
506.24,1177.00
508.67,1213.00
511.09,1156.00
513.52,1198.00
515.94,1109.00
518.36,1107.00
520.78,1086.00
523.20,1082.00
525.62,1043.00
528.03,1008.00
530.45,1036.00
532.87,1010.00
535.28,980.00
537.69,974.00
540.11,887.00
542.52,941.00
544.93,902.00
547.34,837.00
549.75,814.00
552.16,765.00
554.57,795.00
556.98,765.00
559.38,767.00
561.79,684.00
564.19,679.00
566.59,695.00
569.00,592.00
571.40,668.00
573.80,602.00
576.20,612.00
578.60,617.00
581.00,555.00
583.39,622.00
585.79,537.00
588.19,625.00
590.58,515.00
592.98,588.00
595.37,537.00
597.76,516.00
600.15,538.00
602.54,512.00
604.93,514.00
607.32,476.00
609.71,552.00
612.09,541.00
614.48,490.00
616.87,556.00
619.25,486.00
621.63,560.00
624.02,528.00
626.40,558.00
628.78,564.00
631.16,499.00
633.54,574.00
635.91,524.00
638.29,551.00
640.67,536.00
643.04,541.00
645.42,596.00
647.79,568.00
650.16,583.00
652.54,589.00
654.91,568.00
657.28,596.00
659.65,577.00
662.02,636.00
664.38,594.00
666.75,613.00
669.12,640.00
671.48,562.00
673.84,621.00
676.21,615.00
678.57,640.00
680.93,653.00
683.29,652.00
685.65,663.00
688.01,627.00
690.37,689.00
692.73,624.00
695.08,672.00
697.44,674.00
699.79,610.00
702.14,674.00
704.50,631.00
706.85,645.00
709.20,645.00
711.55,658.00
713.90,631.00
716.25,607.00
718.60,629.00
720.94,609.00
723.29,630.00
725.63,661.00
727.98,581.00
730.32,647.00
732.66,551.00
735.00,619.00
737.34,564.00
739.68,575.00
742.02,592.00
744.36,583.00
746.70,554.00
749.03,520.00
751.37,574.00
753.70,556.00
756.04,567.00
758.37,623.00
760.70,492.00
763.03,534.00
765.36,475.00
767.69,520.00
770.02,524.00
772.35,467.00
774.67,501.00
777.00,459.00
779.32,518.00
781.65,486.00
783.97,421.00
786.29,488.00
788.61,456.00
790.93,530.00
793.25,436.00
795.57,433.00
797.89,446.00
800.21,437.00
802.52,475.00
804.84,440.00
807.15,425.00
809.47,408.00
811.78,442.00
814.09,418.00
816.40,347.00
818.71,450.00
821.02,416.00
823.33,404.00
825.64,374.00
827.94,404.00
830.25,406.00
832.55,365.00
834.86,415.00
837.16,365.00
839.46,340.00
841.77,385.00
844.07,298.00
846.37,414.00
848.66,374.00
850.96,379.00
853.26,397.00
855.56,365.00
857.85,393.00
860.15,378.00
862.44,422.00
864.73,340.00
867.02,359.00
869.31,372.00
871.60,374.00
873.89,456.00
876.18,343.00
878.47,440.00
880.76,399.00
883.04,376.00
885.33,443.00
887.61,368.00
889.89,439.00
892.18,367.00
894.46,372.00
896.74,511.00
899.02,425.00
901.30,452.00
903.58,351.00
905.85,437.00
908.13,459.00
910.40,378.00
912.68,398.00
914.95,365.00
917.23,416.00
919.50,378.00
921.77,379.00
924.04,372.00
926.31,370.00
928.58,433.00
930.84,365.00
933.11,377.00
935.38,365.00
937.64,391.00
939.91,395.00
942.17,380.00
944.43,425.00
946.69,308.00
948.95,399.00
951.21,377.00
953.47,344.00
955.73,377.00
957.99,336.00
960.25,357.00
962.50,347.00
964.76,374.00
967.01,397.00
969.26,349.00
971.51,395.00
973.77,378.00
976.02,389.00
978.27,357.00
980.51,384.00
982.76,399.00
985.01,346.00
987.26,456.00
989.50,399.00
991.75,370.00
993.99,380.00
996.23,314.00
998.47,439.00
1000.71,333.00
1002.95,417.00
1005.19,397.00
1007.43,360.00
1009.67,406.00
1011.91,378.00
1014.14,445.00
1016.38,423.00
1018.61,437.00
1020.84,437.00
1023.08,417.00
1025.31,439.00
1027.54,469.00
1029.77,509.00
1032.00,465.00
1034.23,413.00
1036.45,533.00
1038.68,477.00
1040.91,543.00
1043.13,539.00
1045.35,535.00
1047.58,565.00
1049.80,575.00
1052.02,619.00
1054.24,541.00
1056.46,622.00
1058.68,568.00
1060.90,587.00
1063.11,624.00
1065.33,617.00
1067.55,664.00
1069.76,571.00
1071.97,662.00
1074.19,647.00
1076.40,622.00
1078.61,723.00
1080.82,628.00
1083.03,682.00
1085.24,698.00
1087.44,639.00
1089.65,678.00
1091.86,608.00
1094.06,725.00
1096.27,625.00
1098.47,643.00
1100.67,630.00
1102.87,623.00
1105.07,630.00
1107.27,629.00
1109.47,656.00
1111.67,563.00
1113.87,607.00
1116.07,636.00
1118.26,567.00
1120.46,672.00
1122.65,588.00
1124.84,632.00
1127.04,596.00
1129.23,556.00
1131.42,626.00
1133.61,563.00
1135.80,564.00
1137.98,568.00
1140.17,590.00
1142.36,534.00
1144.54,537.00
1146.73,588.00
1148.91,530.00
1151.09,588.00
1153.28,556.00
1155.46,574.00
1157.64,591.00
1159.82,556.00
1162.00,596.00
1164.17,507.00
1166.35,592.00
1168.53,557.00
1170.70,551.00
1172.88,553.00
1175.05,617.00
1177.22,572.00
1179.40,539.00
1181.57,634.00
1183.74,592.00
1185.91,560.00
1188.07,630.00
1190.24,606.00
1192.41,627.00
1194.57,608.00
1196.74,579.00
1198.90,659.00
1201.07,596.00
1203.23,634.00
1205.39,596.00
1207.55,621.00
1209.71,632.00
1211.87,636.00
1214.03,723.00
1216.19,642.00
1218.34,731.00
1220.50,716.00
1222.66,666.00
1224.81,752.00
1226.96,689.00
1229.11,813.00
1231.27,740.00
1233.42,758.00
1235.57,770.00
1237.72,788.00
1239.86,868.00
1242.01,814.00
1244.16,862.00
1246.30,858.00
1248.45,874.00
1250.59,932.00
1252.74,910.00
1254.88,1048.00
1257.02,968.00
1259.16,1020.00
1261.30,1029.00
1263.44,1025.00
1265.58,1084.00
1267.71,1092.00
1269.85,1127.00
1271.99,1110.00
1274.12,1220.00
1276.25,1231.00
1278.39,1270.00
1280.52,1240.00
1282.65,1326.00
1284.78,1343.00
1286.91,1360.00
1289.04,1422.00
1291.17,1438.00
1293.30,1429.00
1295.42,1475.00
1297.55,1536.00
1299.67,1601.00
1301.80,1600.00
1303.92,1640.00
1306.04,1694.00
1308.16,1714.00
1310.28,1764.00
1312.40,1699.00
1314.52,1722.00
1316.64,1791.00
1318.76,1834.00
1320.87,1864.00
1322.99,1838.00
1325.10,1929.00
1327.22,1868.00
1329.33,1854.00
1331.44,1936.00
1333.55,1902.00
1335.66,1871.00
1337.77,1974.00
1339.88,1959.00
1341.99,2019.00
1344.10,1876.00
1346.20,1927.00
1348.31,1876.00
1350.41,1959.00
1352.52,1916.00
1354.62,1929.00
1356.72,1921.00
1358.82,1922.00
1360.92,1872.00
1363.02,1874.00
1365.12,1932.00
1367.22,1898.00
1369.31,1838.00
1371.41,1957.00
1373.51,1857.00
1375.60,1870.00
1377.69,1917.00
1379.79,1859.00
1381.88,1897.00
1383.97,1897.00
1386.06,2000.00
1388.15,2020.00
1390.24,2170.00
1392.33,2373.00
1394.41,2614.00
1396.50,3134.00
1398.59,3658.00
1400.67,4249.00
1402.75,4500.00
1404.84,4414.00
1406.92,4235.00
1409.00,3710.00
1411.08,3388.00
1413.16,3129.00
1415.24,2821.00
1417.32,2751.00
1419.39,2663.00
1421.47,2654.00
1423.54,2616.00
1425.62,2603.00
1427.69,2544.00
1429.77,2510.00
1431.84,2411.00
1433.91,2364.00
1435.98,2311.00
1438.05,2225.00
1440.12,2178.00
1442.19,2166.00
1444.25,2009.00
1446.32,2003.00
1448.38,1921.00
1450.45,1900.00
1452.51,1832.00
1454.58,1722.00
1456.64,1644.00
1458.70,1613.00
1460.76,1669.00
1462.82,1591.00
1464.88,1577.00
1466.94,1612.00
1468.99,1511.00
1471.05,1644.00
1473.10,1574.00
1475.16,1568.00
1477.21,1618.00
1479.27,1638.00
1481.32,1633.00
1483.37,1580.00
1485.42,1648.00
1487.47,1614.00
1489.52,1673.00
1491.57,1648.00
1493.61,1573.00
1495.66,1714.00
1497.71,1657.00
1499.75,1752.00
1501.79,1721.00
1503.84,1627.00
1505.88,1710.00
1507.92,1714.00
1509.96,1758.00
1512.00,1745.00
1514.04,1767.00
1516.08,1686.00
1518.12,1754.00
1520.15,1781.00
1522.19,1676.00
1524.22,1773.00
1526.26,1758.00
1528.29,1739.00
1530.32,1765.00
1532.35,1752.00
1534.38,1773.00
1536.41,1702.00
1538.44,1769.00
1540.47,1758.00
1542.50,1707.00
1544.53,1747.00
1546.55,1671.00
1548.58,1686.00
1550.60,1710.00
1552.62,1738.00
1554.65,1712.00
1556.67,1682.00
1558.69,1707.00
1560.71,1689.00
1562.73,1745.00
1564.75,1589.00
1566.76,1678.00
1568.78,1634.00
1570.80,1677.00
1572.81,1684.00
1574.83,1674.00
1576.84,1614.00
1578.85,1686.00
1580.86,1651.00
1582.88,1686.00
1584.89,1638.00
1586.89,1648.00
1588.90,1665.00
1590.91,1663.00
1592.92,1618.00
1594.92,1575.00
1596.93,1656.00
1598.93,1657.00
1600.94,1654.00
1602.94,1654.00
1604.94,1624.00
1606.94,1662.00
1608.94,1614.00
1610.94,1665.00
1612.94,1648.00
1614.94,1658.00
1616.94,1662.00
1618.93,1606.00
1620.93,1758.00
1622.92,1706.00
1624.92,1652.00
1626.91,1730.00
1628.90,1671.00
1630.89,1742.00
1632.89,1703.00
1634.88,1682.00
1636.86,1737.00
1638.85,1718.00
1640.84,1697.00
1642.83,1752.00
1644.81,1762.00
1646.80,1718.00
1648.78,1827.00
1650.76,1762.00
1652.75,1721.00
1654.73,1809.00
1656.71,1734.00
1658.69,1859.00
1660.67,1809.00
1662.65,1838.00
1664.62,1857.00
1666.60,1832.00
1668.58,1874.00
1670.55,1930.00
1672.53,1878.00
1674.50,1925.00
1676.47,1927.00
1678.45,1967.00
1680.42,2037.00
1682.39,2063.00
1684.36,2102.00
1686.32,2061.00
1688.29,2178.00
1690.26,2204.00
1692.23,2263.00
1694.19,2390.00
1696.16,2551.00
1698.12,2718.00
1700.08,3145.00
1702.05,3675.00
1704.01,4682.00
1705.97,6258.00
1707.93,7427.00
1709.89,7650.00
1711.84,6580.00
1713.80,5175.00
1715.76,4142.00
1717.71,3495.00
1719.67,3214.00
1721.62,2908.00
1723.58,2802.00
1725.53,2741.00
1727.48,2743.00
1729.43,2779.00
1731.38,2732.00
1733.33,2796.00
1735.28,2784.00
1737.23,2867.00
1739.17,2869.00
1741.12,2899.00
1743.06,2939.00
1745.01,3007.00
1746.95,3072.00
1748.90,3109.00
1750.84,3131.00
1752.78,3153.00
1754.72,3161.00
1756.66,3162.00
1758.60,3243.00
1760.54,3219.00
1762.47,3297.00
1764.41,3229.00
1766.35,3280.00
1768.28,3233.00
1770.21,3192.00
1772.15,3176.00
1774.08,3128.00
1776.01,3104.00
1777.94,3096.00
1779.87,3004.00
1781.80,2952.00
1783.73,2837.00
1785.66,2764.00
1787.58,2754.00
1789.51,2607.00
1791.44,2544.00
1793.36,2457.00
1795.28,2354.00
1797.21,2362.00
1799.13,2209.00
1801.05,2192.00
1802.97,2081.00
1804.89,2045.00
1806.81,1961.00
1808.73,1908.00
1810.64,1756.00
1812.56,1817.00
1814.48,1672.00
1816.39,1701.00
1818.30,1644.00
1820.22,1551.00
1822.13,1618.00
1824.04,1491.00
1825.95,1496.00
1827.86,1417.00
1829.77,1422.00
1831.68,1428.00
1833.59,1346.00
1835.49,1353.00
1837.40,1340.00
1839.31,1259.00
1841.21,1212.00
1843.11,1301.00
1845.02,1301.00
1846.92,1287.00
1848.82,1266.00
1850.72,1251.00
1852.62,1219.00
1854.52,1242.00
1856.42,1165.00
1858.31,1278.00
1860.21,1135.00
1862.11,1172.00
1864.00,1179.00
1865.89,1126.00
1867.79,1228.00
1869.68,1131.00
1871.57,1179.00
1873.46,1200.00
1875.35,1194.00
1877.24,1188.00
1879.13,1135.00
1881.02,1192.00
1882.91,1152.00
1884.79,1202.00
1886.68,1176.00
1888.56,1215.00
1890.45,1226.00
1892.33,1190.00
1894.21,1183.00
1896.09,1183.00
1897.97,1164.00
1899.85,1175.00
1901.73,1194.00
1903.61,1229.00
1905.49,1206.00
1907.36,1245.00
1909.24,1201.00
1911.11,1234.00
1912.99,1257.00
1914.86,1219.00
1916.74,1221.00
1918.61,1243.00
1920.48,1293.00
1922.35,1261.00
1924.22,1322.00
1926.09,1312.00
1927.95,1320.00
1929.82,1361.00
1931.69,1342.00
1933.55,1340.00
1935.42,1365.00
1937.28,1339.00
1939.15,1435.00
1941.01,1439.00
1942.87,1428.00
1944.73,1395.00
1946.59,1443.00
1948.45,1553.00
1950.31,1502.00
1952.17,1513.00
1954.02,1593.00
1955.88,1560.00
1957.73,1631.00
1959.59,1579.00
1961.44,1633.00
1963.30,1623.00
1965.15,1654.00
1967.00,1732.00
1968.85,1762.00
1970.70,1897.00
1972.55,1872.00
1974.40,1936.00
1976.25,1882.00
1978.09,1937.00
1979.94,1997.00
1981.78,1998.00
1983.63,2052.00
1985.47,2101.00
1987.31,2082.00
1989.16,2120.00
1991.00,2109.00
1992.84,2142.00
1994.68,2199.00
1996.52,2126.00
1998.35,2218.00
2000.19,2200.00
2002.03,2202.00
2003.86,2157.00
2005.70,2202.00
2007.53,2163.00
2009.37,2124.00
2011.20,2092.00
2013.03,2075.00
2014.86,2041.00
2016.69,2039.00
2018.52,2005.00
2020.35,1984.00
2022.18,1891.00
2024.01,1881.00
2025.83,1902.00
2027.66,1805.00
2029.48,1786.00
2031.31,1798.00
2033.13,1665.00
2034.95,1663.00
2036.77,1600.00
2038.59,1616.00
2040.42,1557.00
2042.23,1542.00
2044.05,1437.00
2045.87,1422.00
2047.69,1408.00
2049.50,1356.00
2051.32,1357.00
2053.13,1308.00
2054.95,1262.00
2056.76,1215.00
2058.57,1207.00
2060.39,1125.00
2062.20,1067.00
2064.01,1074.00
2065.82,1046.00
2067.62,1006.00
2069.43,989.00
2071.24,974.00
2073.05,896.00
2074.85,909.00
2076.66,849.00
2078.46,841.00
2080.26,788.00
2082.06,757.00
2083.87,713.00
2085.67,723.00
2087.47,710.00
2089.27,649.00
2091.06,675.00
2092.86,647.00
2094.66,629.00
2096.45,611.00
2098.25,583.00
2100.04,606.00
2101.84,562.00
2103.63,516.00
2105.42,523.00
2107.22,487.00
2109.01,509.00
2110.80,531.00
2112.59,499.00
2114.37,488.00
2116.16,514.00
2117.95,425.00
2119.73,431.00
2121.52,467.00
2123.30,437.00
2125.09,456.00
2126.87,444.00
2128.65,431.00
2130.43,431.00
2132.22,410.00
2134.00,440.00
2135.77,405.00
2137.55,435.00
2139.33,386.00
2141.11,397.00
2142.88,420.00
2144.66,396.00
2146.43,386.00
2148.21,384.00
2149.98,392.00
2151.75,385.00
2153.52,360.00
2155.29,366.00
2157.06,352.00
2158.83,399.00
2160.60,375.00
2162.37,359.00
2164.14,341.00
2165.90,385.00
2167.67,338.00
2169.43,370.00
2171.20,322.00
2172.96,327.00
2174.72,311.00
2176.48,351.00
2178.24,334.00
2180.00,304.00
2181.76,326.00
2183.52,317.00
2185.28,320.00
2187.04,317.00
2188.79,336.00
2190.55,296.00
2192.30,246.00
2194.06,281.00
2195.81,311.00
2197.56,307.00
2199.31,332.00
2201.06,308.00
2202.81,265.00
2204.56,319.00
2206.31,302.00
2208.06,303.00
2209.81,307.00
2211.55,273.00
2213.30,306.00
2215.04,306.00
2216.79,293.00
2218.53,254.00
2220.27,279.00
2222.01,303.00
2223.76,250.00
2225.50,279.00
2227.23,296.00
2228.97,275.00
2230.71,247.00
2232.45,253.00
2234.18,277.00
2235.92,241.00
2237.66,267.00
2239.39,277.00
2241.12,289.00
2242.86,246.00
2244.59,256.00
2246.32,290.00
2248.05,273.00
2249.78,275.00
2251.51,245.00
2253.23,258.00
2254.96,213.00
2256.69,239.00
2258.41,239.00
2260.14,266.00
2261.86,261.00
2263.59,220.00
2265.31,254.00
2267.03,296.00
2268.75,210.00
2270.47,262.00
2272.19,226.00
2273.91,260.00
2275.63,211.00
2277.35,248.00
2279.06,225.00
2280.78,243.00
2282.50,294.00
2284.21,273.00
2285.92,241.00
2287.64,280.00
2289.35,226.00
2291.06,243.00
2292.77,194.00
2294.48,251.00
2296.19,275.00
2297.90,230.00
2299.61,248.00
2301.31,229.00
2303.02,229.00
2304.72,226.00
2306.43,216.00
2308.13,275.00
2309.84,245.00
2311.54,243.00
2313.24,225.00
2314.94,209.00
2316.64,232.00
2318.34,199.00
2320.04,222.00
2321.74,220.00
2323.43,228.00
2325.13,201.00
2326.83,196.00
2328.52,207.00
2330.21,190.00
2331.91,213.00
2333.60,228.00
2335.29,220.00
2336.98,231.00
2338.67,209.00
2340.36,224.00
2342.05,219.00
2343.74,238.00
2345.43,224.00
2347.11,230.00
2348.80,207.00
2350.49,201.00
2352.17,192.00
2353.85,216.00
2355.54,238.00
2357.22,215.00
2358.90,218.00
2360.58,217.00
2362.26,218.00
2363.94,236.00
2365.62,222.00
2367.30,230.00
2368.97,207.00
2370.65,207.00
2372.32,214.00
2374.00,205.00
2375.67,209.00
2377.35,205.00
2379.02,194.00
2380.69,250.00
2382.36,207.00
2384.03,235.00
2385.70,207.00
2387.37,214.00
2389.04,228.00
2390.70,192.00
2392.37,218.00
2394.04,176.00
2395.70,255.00
2397.37,186.00
2399.03,192.00
2400.69,228.00
2402.35,180.00
2404.02,222.00
2405.68,213.00
2407.34,198.00
2409.00,190.00
2410.65,173.00
2412.31,241.00
2413.97,156.00
2415.62,198.00
2417.28,180.00
2418.93,193.00
2420.59,207.00
2422.24,177.00
2423.89,226.00
2425.55,190.00
2427.20,224.00
2428.85,199.00
2430.50,184.00
2432.14,256.00
2433.79,194.00
2435.44,220.00
2437.09,171.00
2438.73,215.00
2440.38,201.00
2442.02,156.00
2443.66,207.00
2445.31,203.00
2446.95,208.00
2448.59,179.00
2450.23,191.00
2451.87,228.00
2453.51,199.00
2455.15,197.00
2456.79,190.00
2458.42,228.00
2460.06,200.00
2461.70,179.00
2463.33,220.00
2464.96,198.00
2466.60,217.00
2468.23,197.00
2469.86,175.00
2471.49,239.00
2473.12,177.00
2474.75,211.00
2476.38,165.00
2478.01,230.00
2479.64,183.00
2481.26,188.00
2482.89,239.00
2484.51,210.00
2486.14,229.00
2487.76,209.00
2489.39,190.00
2491.01,201.00
2492.63,192.00
2494.25,205.00
2495.87,203.00
2497.49,219.00
2499.11,182.00
2500.73,204.00
2502.34,209.00
2503.96,190.00
2505.57,190.00
2507.19,186.00
2508.80,203.00
2510.42,235.00
2512.03,167.00
2513.64,214.00
2515.25,179.00
2516.86,211.00
2518.47,175.00
2520.08,171.00
2521.69,213.00
2523.30,148.00
2524.91,182.00
2526.51,157.00
2528.12,191.00
2529.72,197.00
2531.33,162.00
2532.93,205.00
2534.53,128.00
2536.13,183.00
2537.73,188.00
2539.33,179.00
2540.93,186.00
2542.53,152.00
2544.13,191.00
2545.73,167.00
2547.32,190.00
2548.92,183.00
2550.52,129.00
2552.11,183.00
2553.70,159.00
2555.30,192.00
2556.89,157.00
2558.48,185.00
2560.07,210.00
2561.66,125.00
2563.25,207.00
2564.84,154.00
