ENLIGHTEN Version,1.6.8
Measurement ID,20190528-082341-828507-WP-00391
Serial Number,WP-00391
Label,Ammonium Chloride
Integration Time,2000
Timestamp,2019-05-28 08:23:41.828507
Note,
Temperature,-99
CCD C0,789.0726928710938
CCD C1,0.16069164872169495
CCD C2,5.064120159659069e-06
CCD C3,-4.444800083547307e-09
CCD Offset,0
CCD Gain,1.9
Laser Wavelength,785.0
Laser Enable,False
Laser Power,100.0
Laser Temperature,-99
Pixel Count,2048

Wavenumber,Processed
65.75,169.00
68.33,164.00
70.91,243.00
73.49,224.00
76.07,292.00
78.64,323.00
81.22,393.00
83.79,514.00
86.37,489.00
88.94,621.00
91.51,574.00
94.09,648.00
96.66,629.00
99.23,585.00
101.79,659.00
104.36,647.00
106.93,797.00
109.50,754.00
112.06,841.00
114.63,890.00
117.19,976.00
119.75,1232.00
122.31,1380.00
124.87,1790.00
127.43,2143.00
129.99,2718.00
132.55,3252.00
135.11,3679.00
137.66,4098.00
140.22,4294.00
142.78,4549.00
145.33,4676.00
147.88,4761.00
150.43,4972.00
152.98,5109.00
155.53,5425.00
158.08,5858.00
160.63,6303.00
163.18,6772.00
165.73,7189.00
168.27,7305.00
170.82,7214.00
173.36,6928.00
175.90,6647.00
178.45,6266.00
180.99,6173.00
183.53,6006.00
186.07,6047.00
188.61,6045.00
191.14,6096.00
193.68,6049.00
196.22,5936.00
198.75,5941.00
201.29,5714.00
203.82,5594.00
206.35,5304.00
208.88,5037.00
211.41,4943.00
213.94,4640.00
216.47,4567.00
219.00,4322.00
221.53,4196.00
224.05,4013.00
226.58,3896.00
229.10,3812.00
231.63,3704.00
234.15,3624.00
236.67,3467.00
239.19,3358.00
241.71,3303.00
244.23,3153.00
246.75,3225.00
249.27,3127.00
251.78,3092.00
254.30,3082.00
256.81,3009.00
259.33,3024.00
261.84,2920.00
264.35,2928.00
266.86,2852.00
269.38,2907.00
271.88,2815.00
274.39,2840.00
276.90,2914.00
279.41,2834.00
281.91,2880.00
284.42,2863.00
286.92,2884.00
289.43,2864.00
291.93,2821.00
294.43,2912.00
296.93,2777.00
299.43,2888.00
301.93,2922.00
304.43,2821.00
306.92,2821.00
309.42,2759.00
311.91,2891.00
314.41,2846.00
316.90,2771.00
319.39,2849.00
321.89,2848.00
324.38,2817.00
326.87,2724.00
329.36,2830.00
331.84,2770.00
334.33,2703.00
336.82,2798.00
339.30,2768.00
341.79,2752.00
344.27,2667.00
346.75,2722.00
349.24,2683.00
351.72,2682.00
354.20,2677.00
356.68,2622.00
359.16,2658.00
361.63,2599.00
364.11,2485.00
366.59,2549.00
369.06,2485.00
371.53,2553.00
374.01,2379.00
376.48,2445.00
378.95,2398.00
381.42,2375.00
383.89,2222.00
386.36,2274.00
388.83,2217.00
391.29,2130.00
393.76,2196.00
396.23,2210.00
398.69,2140.00
401.15,2187.00
403.62,2126.00
406.08,2187.00
408.54,2162.00
411.00,2130.00
413.46,2193.00
415.91,2082.00
418.37,2273.00
420.83,2149.00
423.28,2216.00
425.74,2286.00
428.19,2332.00
430.64,2254.00
433.10,2310.00
435.55,2386.00
438.00,2345.00
440.45,2373.00
442.90,2395.00
445.34,2408.00
447.79,2472.00
450.24,2432.00
452.68,2466.00
455.12,2539.00
457.57,2500.00
460.01,2555.00
462.45,2580.00
464.89,2597.00
467.33,2580.00
469.77,2609.00
472.21,2610.00
474.64,2665.00
477.08,2705.00
479.52,2635.00
481.95,2683.00
484.38,2687.00
486.82,2709.00
489.25,2726.00
491.68,2646.00
494.11,2708.00
496.54,2624.00
498.96,2686.00
501.39,2696.00
503.82,2626.00
506.24,2585.00
508.67,2537.00
511.09,2548.00
513.52,2506.00
515.94,2456.00
518.36,2510.00
520.78,2428.00
523.20,2419.00
525.62,2290.00
528.03,2380.00
530.45,2290.00
532.87,2236.00
535.28,2227.00
537.69,2037.00
540.11,2165.00
542.52,1994.00
544.93,2006.00
547.34,1970.00
549.75,1889.00
552.16,1879.00
554.57,1809.00
556.98,1805.00
559.38,1663.00
561.79,1682.00
564.19,1621.00
566.59,1549.00
569.00,1553.00
571.40,1509.00
573.80,1527.00
576.20,1456.00
578.60,1430.00
581.00,1429.00
583.39,1380.00
585.79,1456.00
588.19,1344.00
590.58,1418.00
592.98,1339.00
595.37,1346.00
597.76,1316.00
600.15,1275.00
602.54,1304.00
604.93,1228.00
607.32,1306.00
609.71,1274.00
612.09,1239.00
614.48,1365.00
616.87,1245.00
619.25,1321.00
621.63,1346.00
624.02,1320.00
626.40,1302.00
628.78,1327.00
631.16,1339.00
633.54,1252.00
635.91,1348.00
638.29,1338.00
640.67,1338.00
643.04,1348.00
645.42,1317.00
647.79,1416.00
650.16,1348.00
652.54,1391.00
654.91,1464.00
657.28,1393.00
659.65,1476.00
662.02,1439.00
664.38,1484.00
666.75,1490.00
669.12,1506.00
671.48,1486.00
673.84,1451.00
676.21,1483.00
678.57,1496.00
680.93,1524.00
683.29,1488.00
685.65,1515.00
688.01,1544.00
690.37,1511.00
692.73,1517.00
695.08,1507.00
697.44,1555.00
699.79,1515.00
702.14,1515.00
704.50,1534.00
706.85,1445.00
709.20,1496.00
711.55,1511.00
713.90,1458.00
716.25,1530.00
718.60,1420.00
720.94,1494.00
723.29,1410.00
725.63,1416.00
727.98,1462.00
730.32,1447.00
732.66,1432.00
735.00,1426.00
737.34,1377.00
739.68,1346.00
742.02,1352.00
744.36,1443.00
746.70,1308.00
749.03,1378.00
751.37,1284.00
753.70,1338.00
756.04,1336.00
758.37,1228.00
760.70,1343.00
763.03,1209.00
765.36,1240.00
767.69,1188.00
770.02,1215.00
772.35,1200.00
774.67,1154.00
777.00,1241.00
779.32,1158.00
781.65,1171.00
783.97,1169.00
786.29,1122.00
788.61,1162.00
790.93,1074.00
793.25,1138.00
795.57,1103.00
797.89,1153.00
800.21,1112.00
802.52,1008.00
804.84,1140.00
807.15,1103.00
809.47,1154.00
811.78,1066.00
814.09,1090.00
816.40,1092.00
818.71,981.00
821.02,1103.00
823.33,1033.00
825.64,1035.00
827.94,1078.00
830.25,1012.00
832.55,1016.00
834.86,949.00
837.16,963.00
839.46,1019.00
841.77,1029.00
844.07,1048.00
846.37,945.00
848.66,985.00
850.96,965.00
853.26,1006.00
855.56,985.00
857.85,957.00
860.15,1024.00
862.44,988.00
864.73,978.00
867.02,949.00
869.31,1027.00
871.60,991.00
873.89,999.00
876.18,1015.00
878.47,954.00
880.76,1027.00
883.04,1021.00
885.33,1025.00
887.61,1074.00
889.89,978.00
892.18,1089.00
894.46,1117.00
896.74,1039.00
899.02,1126.00
901.30,1086.00
903.58,1010.00
905.85,926.00
908.13,1078.00
910.40,1020.00
912.68,1120.00
914.95,1016.00
917.23,972.00
919.50,1021.00
921.77,1005.00
924.04,970.00
926.31,1004.00
928.58,982.00
930.84,1014.00
933.11,970.00
935.38,1020.00
937.64,932.00
939.91,905.00
942.17,944.00
944.43,931.00
946.69,987.00
948.95,989.00
951.21,985.00
953.47,972.00
955.73,929.00
957.99,964.00
960.25,883.00
962.50,1018.00
964.76,889.00
967.01,967.00
969.26,974.00
971.51,965.00
973.77,915.00
976.02,944.00
978.27,1023.00
980.51,926.00
982.76,946.00
985.01,896.00
987.26,896.00
989.50,1010.00
991.75,905.00
993.99,1008.00
996.23,902.00
998.47,985.00
1000.71,968.00
1002.95,981.00
1005.19,1061.00
1007.43,993.00
1009.67,982.00
1011.91,1048.00
1014.14,993.00
1016.38,1054.00
1018.61,1040.00
1020.84,1139.00
1023.08,1096.00
1025.31,1059.00
1027.54,1143.00
1029.77,1101.00
1032.00,1192.00
1034.23,1154.00
1036.45,1173.00
1038.68,1274.00
1040.91,1156.00
1043.13,1325.00
1045.35,1281.00
1047.58,1348.00
1049.80,1338.00
1052.02,1308.00
1054.24,1407.00
1056.46,1386.00
1058.68,1473.00
1060.90,1355.00
1063.11,1452.00
1065.33,1445.00
1067.55,1477.00
1069.76,1462.00
1071.97,1456.00
1074.19,1441.00
1076.40,1437.00
1078.61,1498.00
1080.82,1513.00
1083.03,1475.00
1085.24,1577.00
1087.44,1483.00
1089.65,1542.00
1091.86,1473.00
1094.06,1469.00
1096.27,1556.00
1098.47,1463.00
1100.67,1494.00
1102.87,1475.00
1105.07,1443.00
1107.27,1468.00
1109.47,1477.00
1111.67,1492.00
1113.87,1450.00
1116.07,1458.00
1118.26,1433.00
1120.46,1388.00
1122.65,1406.00
1124.84,1325.00
1127.04,1420.00
1129.23,1327.00
1131.42,1341.00
1133.61,1443.00
1135.80,1335.00
1137.98,1418.00
1140.17,1360.00
1142.36,1372.00
1144.54,1291.00
1146.73,1285.00
1148.91,1377.00
1151.09,1270.00
1153.28,1285.00
1155.46,1352.00
1157.64,1350.00
1159.82,1268.00
1162.00,1291.00
1164.17,1327.00
1166.35,1295.00
1168.53,1333.00
1170.70,1375.00
1172.88,1315.00
1175.05,1344.00
1177.22,1354.00
1179.40,1412.00
1181.57,1375.00
1183.74,1464.00
1185.91,1340.00
1188.07,1422.00
1190.24,1441.00
1192.41,1384.00
1194.57,1466.00
1196.74,1361.00
1198.90,1475.00
1201.07,1453.00
1203.23,1479.00
1205.39,1479.00
1207.55,1513.00
1209.71,1538.00
1211.87,1450.00
1214.03,1561.00
1216.19,1564.00
1218.34,1569.00
1220.50,1555.00
1222.66,1634.00
1224.81,1682.00
1226.96,1686.00
1229.11,1660.00
1231.27,1768.00
1233.42,1758.00
1235.57,1807.00
1237.72,1809.00
1239.86,1847.00
1242.01,1897.00
1244.16,1910.00
1246.30,1940.00
1248.45,2026.00
1250.59,2052.00
1252.74,2031.00
1254.88,2159.00
1257.02,2149.00
1259.16,2124.00
1261.30,2219.00
1263.44,2314.00
1265.58,2398.00
1267.71,2442.00
1269.85,2413.00
1271.99,2542.00
1274.12,2550.00
1276.25,2673.00
1278.39,2751.00
1280.52,2781.00
1282.65,2854.00
1284.78,2933.00
1286.91,3003.00
1289.04,2994.00
1291.17,3137.00
1293.30,3216.00
1295.42,3198.00
1297.55,3285.00
1299.67,3360.00
1301.80,3442.00
1303.92,3533.00
1306.04,3540.00
1308.16,3673.00
1310.28,3785.00
1312.40,3714.00
1314.52,3787.00
1316.64,3732.00
1318.76,3844.00
1320.87,3995.00
1322.99,4029.00
1325.10,3985.00
1327.22,4105.00
1329.33,4061.00
1331.44,4125.00
1333.55,4042.00
1335.66,4165.00
1337.77,4110.00
1339.88,4117.00
1341.99,4144.00
1344.10,4057.00
1346.20,4083.00
1348.31,4044.00
1350.41,4097.00
1352.52,4131.00
1354.62,4046.00
1356.72,4063.00
1358.82,4040.00
1360.92,4051.00
1363.02,4025.00
1365.12,4028.00
1367.22,4038.00
1369.31,3962.00
1371.41,4007.00
1373.51,3956.00
1375.60,3931.00
1377.69,4005.00
1379.79,4038.00
1381.88,4047.00
1383.97,4089.00
1386.06,4266.00
1388.15,4359.00
1390.24,4581.00
1392.33,4934.00
1394.41,5613.00
1396.50,6417.00
1398.59,7621.00
1400.67,8744.00
1402.75,9268.00
1404.84,8898.00
1406.92,8376.00
1409.00,7657.00
1411.08,6936.00
1413.16,6377.00
1415.24,6027.00
1417.32,5771.00
1419.39,5492.00
1421.47,5507.00
1423.54,5418.00
1425.62,5306.00
1427.69,5183.00
1429.77,5124.00
1431.84,5050.00
1433.91,4917.00
1435.98,4765.00
1438.05,4676.00
1440.12,4626.00
1442.19,4490.00
1444.25,4260.00
1446.32,4319.00
1448.38,4112.00
1450.45,3951.00
1452.51,3765.00
1454.58,3732.00
1456.64,3567.00
1458.70,3563.00
1460.76,3556.00
1462.82,3360.00
1464.88,3371.00
1466.94,3453.00
1468.99,3521.00
1471.05,3440.00
1473.10,3448.00
1475.16,3452.00
1477.21,3473.00
1479.27,3523.00
1481.32,3600.00
1483.37,3467.00
1485.42,3578.00
1487.47,3529.00
1489.52,3595.00
1491.57,3683.00
1493.61,3617.00
1495.66,3569.00
1497.71,3653.00
1499.75,3715.00
1501.79,3556.00
1503.84,3609.00
1505.88,3709.00
1507.92,3584.00
1509.96,3737.00
1512.00,3689.00
1514.04,3670.00
1516.08,3626.00
1518.12,3615.00
1520.15,3668.00
1522.19,3711.00
1524.22,3695.00
1526.26,3637.00
1528.29,3618.00
1530.32,3710.00
1532.35,3705.00
1534.38,3649.00
1536.41,3690.00
1538.44,3727.00
1540.47,3688.00
1542.50,3632.00
1544.53,3658.00
1546.55,3719.00
1548.58,3609.00
1550.60,3537.00
1552.62,3627.00
1554.65,3545.00
1556.67,3638.00
1558.69,3620.00
1560.71,3575.00
1562.73,3641.00
1564.75,3638.00
1566.76,3613.00
1568.78,3604.00
1570.80,3544.00
1572.81,3667.00
1574.83,3497.00
1576.84,3632.00
1578.85,3544.00
1580.86,3549.00
1582.88,3482.00
1584.89,3500.00
1586.89,3489.00
1588.90,3546.00
1590.91,3495.00
1592.92,3527.00
1594.92,3540.00
1596.93,3550.00
1598.93,3514.00
1600.94,3444.00
1602.94,3480.00
1604.94,3518.00
1606.94,3552.00
1608.94,3428.00
1610.94,3423.00
1612.94,3479.00
1614.94,3431.00
1616.94,3529.00
1618.93,3468.00
1620.93,3536.00
1622.92,3533.00
1624.92,3605.00
1626.91,3567.00
1628.90,3598.00
1630.89,3586.00
1632.89,3531.00
1634.88,3609.00
1636.86,3581.00
1638.85,3700.00
1640.84,3605.00
1642.83,3662.00
1644.81,3671.00
1646.80,3627.00
1648.78,3749.00
1650.76,3765.00
1652.75,3712.00
1654.73,3777.00
1656.71,3755.00
1658.69,3828.00
1660.67,3894.00
1662.65,3881.00
1664.62,3931.00
1666.60,3924.00
1668.58,3879.00
1670.55,3890.00
1672.53,3981.00
1674.50,4059.00
1676.47,4091.00
1678.45,4129.00
1680.42,4217.00
1682.39,4290.00
1684.36,4279.00
1686.32,4402.00
1688.29,4420.00
1690.26,4606.00
1692.23,4759.00
1694.19,4900.00
1696.16,5272.00
1698.12,5617.00
1700.08,6308.00
1702.05,7519.00
1704.01,9504.00
1705.97,12290.00
1707.93,14800.00
1709.89,15235.00
1711.84,13048.00
1713.80,10560.00
1715.76,8492.00
1717.71,7060.00
1719.67,6301.00
1721.62,5948.00
1723.58,5708.00
1725.53,5767.00
1727.48,5532.00
1729.43,5664.00
1731.38,5665.00
1733.33,5748.00
1735.28,5737.00
1737.23,5872.00
1739.17,5976.00
1741.12,5972.00
1743.06,6049.00
1745.01,6206.00
1746.95,6278.00
1748.90,6339.00
1750.84,6388.00
1752.78,6491.00
1754.72,6434.00
1756.66,6549.00
1758.60,6529.00
1760.54,6580.00
1762.47,6589.00
1764.41,6592.00
1766.35,6563.00
1768.28,6462.00
1770.21,6489.00
1772.15,6440.00
1774.08,6356.00
1776.01,6364.00
1777.94,6270.00
1779.87,6056.00
1781.80,5993.00
1783.73,5786.00
1785.66,5652.00
1787.58,5451.00
1789.51,5346.00
1791.44,5215.00
1793.36,5050.00
1795.28,4896.00
1797.21,4769.00
1799.13,4633.00
1801.05,4554.00
1802.97,4329.00
1804.89,4186.00
1806.81,4057.00
1808.73,3996.00
1810.64,3759.00
1812.56,3759.00
1814.48,3632.00
1816.39,3463.00
1818.30,3453.00
1820.22,3301.00
1822.13,3296.00
1824.04,3136.00
1825.95,3021.00
1827.86,2996.00
1829.77,2910.00
1831.68,2962.00
1833.59,2880.00
1835.49,2829.00
1837.40,2704.00
1839.31,2755.00
1841.21,2768.00
1843.11,2654.00
1845.02,2679.00
1846.92,2703.00
1848.82,2616.00
1850.72,2584.00
1852.62,2557.00
1854.52,2496.00
1856.42,2538.00
1858.31,2549.00
1860.21,2558.00
1862.11,2497.00
1864.00,2552.00
1865.89,2546.00
1867.79,2510.00
1869.68,2508.00
1871.57,2544.00
1873.46,2479.00
1875.35,2523.00
1877.24,2578.00
1879.13,2460.00
1881.02,2545.00
1882.91,2553.00
1884.79,2422.00
1886.68,2531.00
1888.56,2519.00
1890.45,2515.00
1892.33,2489.00
1894.21,2506.00
1896.09,2500.00
1897.97,2544.00
1899.85,2563.00
1901.73,2546.00
1903.61,2536.00
1905.49,2495.00
1907.36,2561.00
1909.24,2586.00
1911.11,2608.00
1912.99,2529.00
1914.86,2559.00
1916.74,2599.00
1918.61,2616.00
1920.48,2648.00
1922.35,2675.00
1924.22,2682.00
1926.09,2730.00
1927.95,2709.00
1929.82,2791.00
1931.69,2820.00
1933.55,2770.00
1935.42,2910.00
1937.28,2903.00
1939.15,2871.00
1941.01,2940.00
1942.87,2933.00
1944.73,2962.00
1946.59,3016.00
1948.45,3112.00
1950.31,3066.00
1952.17,3154.00
1954.02,3121.00
1955.88,3300.00
1957.73,3290.00
1959.59,3343.00
1961.44,3339.00
1963.30,3408.00
1965.15,3507.00
1967.00,3621.00
1968.85,3621.00
1970.70,3649.00
1972.55,3723.00
1974.40,3846.00
1976.25,3907.00
1978.09,3979.00
1979.94,4041.00
1981.78,4076.00
1983.63,4260.00
1985.47,4142.00
1987.31,4228.00
1989.16,4362.00
1991.00,4365.00
1992.84,4315.00
1994.68,4349.00
1996.52,4410.00
1998.35,4372.00
2000.19,4429.00
2002.03,4469.00
2003.86,4425.00
2005.70,4392.00
2007.53,4314.00
2009.37,4332.00
2011.20,4217.00
2013.03,4239.00
2014.86,4252.00
2016.69,4060.00
2018.52,4148.00
2020.35,3987.00
2022.18,3907.00
2024.01,3881.00
2025.83,3766.00
2027.66,3700.00
2029.48,3632.00
2031.31,3575.00
2033.13,3501.00
2034.95,3476.00
2036.77,3437.00
2038.59,3309.00
2040.42,3159.00
2042.23,3044.00
2044.05,3053.00
2045.87,2973.00
2047.69,2869.00
2049.50,2850.00
2051.32,2675.00
2053.13,2665.00
2054.95,2531.00
2056.76,2455.00
2058.57,2434.00
2060.39,2286.00
2062.20,2287.00
2064.01,2233.00
2065.82,2173.00
2067.62,2111.00
2069.43,1960.00
2071.24,2027.00
2073.05,1908.00
2074.85,1801.00
2076.66,1805.00
2078.46,1690.00
2080.26,1661.00
2082.06,1688.00
2083.87,1566.00
2085.67,1534.00
2087.47,1510.00
2089.27,1384.00
2091.06,1373.00
2092.86,1340.00
2094.66,1300.00
2096.45,1291.00
2098.25,1215.00
2100.04,1228.00
2101.84,1189.00
2103.63,1089.00
2105.42,1144.00
2107.22,1084.00
2109.01,1088.00
2110.80,1067.00
2112.59,1061.00
2114.37,1053.00
2116.16,1042.00
2117.95,1011.00
2119.73,958.00
2121.52,995.00
2123.30,1005.00
2125.09,928.00
2126.87,965.00
2128.65,987.00
2130.43,934.00
2132.22,965.00
2134.00,886.00
2135.77,936.00
2137.55,829.00
2139.33,953.00
2141.11,873.00
2142.88,850.00
2144.66,872.00
2146.43,814.00
2148.21,868.00
2149.98,805.00
2151.75,846.00
2153.52,795.00
2155.29,814.00
2157.06,820.00
2158.83,788.00
2160.60,784.00
2162.37,765.00
2164.14,781.00
2165.90,772.00
2167.67,758.00
2169.43,765.00
2171.20,763.00
2172.96,725.00
2174.72,702.00
2176.48,752.00
2178.24,742.00
2180.00,672.00
2181.76,725.00
2183.52,725.00
2185.28,700.00
2187.04,687.00
2188.79,705.00
2190.55,746.00
2192.30,668.00
2194.06,712.00
2195.81,708.00
2197.56,695.00
2199.31,692.00
2201.06,653.00
2202.81,691.00
2204.56,632.00
2206.31,680.00
2208.06,716.00
2209.81,635.00
2211.55,656.00
2213.30,662.00
2215.04,693.00
2216.79,630.00
2218.53,603.00
2220.27,619.00
2222.01,579.00
2223.76,663.00
2225.50,652.00
2227.23,649.00
2228.97,604.00
2230.71,611.00
2232.45,625.00
2234.18,572.00
2235.92,651.00
2237.66,590.00
2239.39,592.00
2241.12,541.00
2242.86,579.00
2244.59,617.00
2246.32,566.00
2248.05,607.00
2249.78,528.00
2251.51,589.00
2253.23,592.00
2254.96,586.00
2256.69,600.00
2258.41,524.00
2260.14,575.00
2261.86,531.00
2263.59,533.00
2265.31,592.00
2267.03,481.00
2268.75,539.00
2270.47,532.00
2272.19,527.00
2273.91,503.00
2275.63,558.00
2277.35,579.00
2279.06,520.00
2280.78,531.00
2282.50,472.00
2284.21,575.00
2285.92,530.00
2287.64,527.00
2289.35,569.00
2291.06,508.00
2292.77,532.00
2294.48,524.00
2296.19,579.00
2297.90,560.00
2299.61,528.00
2301.31,565.00
2303.02,490.00
2304.72,516.00
2306.43,560.00
2308.13,537.00
2309.84,545.00
2311.54,524.00
2313.24,517.00
2314.94,482.00
2316.64,501.00
2318.34,479.00
2320.04,470.00
2321.74,528.00
2323.43,494.00
2325.13,472.00
2326.83,412.00
2328.52,425.00
2330.21,464.00
2331.91,431.00
2333.60,500.00
2335.29,479.00
2336.98,510.00
2338.67,493.00
2340.36,465.00
2342.05,551.00
2343.74,456.00
2345.43,494.00
2347.11,484.00
2348.80,514.00
2350.49,531.00
2352.17,478.00
2353.85,527.00
2355.54,467.00
2357.22,537.00
2358.90,465.00
2360.58,462.00
2362.26,516.00
2363.94,488.00
2365.62,553.00
2367.30,454.00
2368.97,520.00
2370.65,517.00
2372.32,444.00
2374.00,478.00
2375.67,429.00
2377.35,477.00
2379.02,471.00
2380.69,462.00
2382.36,493.00
2384.03,435.00
2385.70,488.00
2387.37,454.00
2389.04,496.00
2390.70,455.00
2392.37,476.00
2394.04,480.00
2395.70,437.00
2397.37,488.00
2399.03,448.00
2400.69,447.00
2402.35,471.00
2404.02,461.00
2405.68,505.00
2407.34,414.00
2409.00,482.00
2410.65,444.00
2412.31,488.00
2413.97,473.00
2415.62,474.00
2417.28,503.00
2418.93,398.00
2420.59,446.00
2422.24,446.00
2423.89,442.00
2425.55,477.00
2427.20,436.00
2428.85,480.00
2430.50,458.00
2432.14,408.00
2433.79,476.00
2435.44,393.00
2437.09,473.00
2438.73,448.00
2440.38,443.00
2442.02,467.00
2443.66,448.00
2445.31,473.00
2446.95,406.00
2448.59,423.00
2450.23,444.00
2451.87,437.00
2453.51,492.00
2455.15,446.00
2456.79,480.00
2458.42,391.00
2460.06,442.00
2461.70,420.00
2463.33,435.00
2464.96,481.00
2466.60,410.00
2468.23,454.00
2469.86,402.00
2471.49,440.00
2473.12,426.00
2474.75,434.00
2476.38,518.00
2478.01,410.00
2479.64,465.00
2481.26,438.00
2482.89,421.00
2484.51,467.00
2486.14,423.00
2487.76,448.00
2489.39,437.00
2491.01,486.00
2492.63,447.00
2494.25,395.00
2495.87,467.00
2497.49,441.00
2499.11,469.00
2500.73,431.00
2502.34,448.00
2503.96,431.00
2505.57,397.00
2507.19,450.00
2508.80,444.00
2510.42,414.00
2512.03,444.00
2513.64,402.00
2515.25,434.00
2516.86,395.00
2518.47,422.00
2520.08,399.00
2521.69,410.00
2523.30,427.00
2524.91,403.00
2526.51,412.00
2528.12,385.00
2529.72,463.00
2531.33,400.00
2532.93,412.00
