ENLIGHTEN Version,1.6.8
Measurement ID,20190528-101626-050615-SIGD-0003
Serial Number,SIGD-0003
Label,Ammonium Chloride
Integration Time,500
Timestamp,2019-05-28 10:16:26.050615
Note,
Temperature,-99
CCD C0,613.8702392578125
CCD C1,0.10380711406469345
CCD C2,-1.9689399778144434e-05
CCD C3,3.600099995892947e-09
CCD Offset,0
CCD Gain,1.9
Laser Wavelength,633.0
Laser Enable,True
Laser Power,100.0
Laser Temperature,-99
Pixel Count,1952

Wavenumber,Processed
-492.30,0.00
-489.55,0.00
-486.79,0.00
-484.04,893.00
-481.30,265.00
-478.55,-288.00
-475.81,-160.00
-473.06,-154.00
-470.32,193.00
-467.59,145.00
-464.85,13.00
-462.12,226.00
-459.38,3.00
-456.65,-1038.00
-453.93,128.00
-451.20,-595.00
-448.48,-375.00
-445.75,-235.00
-443.03,227.00
-440.31,82.00
-437.60,-521.00
-434.88,287.00
-432.17,-442.00
-429.46,-264.00
-426.75,348.00
-424.04,684.00
-421.34,18.00
-418.64,52.00
-415.93,221.00
-413.24,273.00
-410.54,-285.00
-407.84,-551.00
-405.15,143.00
-402.46,9.00
-399.77,8.00
-397.08,380.00
-394.39,497.00
-391.71,349.00
-389.03,-291.00
-386.35,-269.00
-383.67,-166.00
-380.99,39.00
-378.32,-25.00
-375.65,625.00
-372.98,407.00
-370.31,-148.00
-367.64,646.00
-364.98,-505.00
-362.31,292.00
-359.65,-323.00
-356.99,-248.00
-354.33,-93.00
-351.68,-35.00
-349.03,405.00
-346.37,315.00
-343.72,-166.00
-341.08,2.00
-338.43,-448.00
-335.78,-63.00
-333.14,-368.00
-330.50,-510.00
-327.86,445.00
-325.23,310.00
-322.59,466.00
-319.96,408.00
-317.33,673.00
-314.70,129.00
-312.07,-352.00
-309.44,-771.00
-306.82,-164.00
-304.20,152.00
-301.57,-436.00
-298.96,11.00
-296.34,-198.00
-293.72,-111.00
-291.11,-97.00
-288.50,278.00
-285.89,131.00
-283.28,626.00
-280.68,126.00
-278.07,-279.00
-275.47,540.00
-272.87,410.00
-270.27,142.00
-267.68,376.00
-265.08,655.00
-262.49,-272.00
-259.90,-949.00
-257.31,-985.00
-254.72,383.00
-252.13,65.00
-249.55,-80.00
-246.97,-140.00
-244.39,-262.00
-241.81,225.00
-239.23,17.00
-236.65,-90.00
-234.08,144.00
-231.51,-300.00
-228.94,220.00
-226.37,-303.00
-223.81,-124.00
-221.24,131.00
-218.68,318.00
-216.12,49.00
-213.56,-68.00
-211.00,-448.00
-208.45,178.00
-205.89,-438.00
-203.34,-266.00
-200.79,-528.00
-198.24,225.00
-195.69,-331.00
-193.15,509.00
-190.61,281.00
-188.06,210.00
-185.52,-110.00
-182.99,-270.00
-180.45,-32.00
-177.92,192.00
-175.38,14.00
-172.85,75.00
-170.32,-179.00
-167.79,243.00
-165.27,327.00
-162.74,204.00
-160.22,-202.00
-157.70,-490.00
-155.18,324.00
-152.66,-232.00
-150.15,-181.00
-147.64,-297.00
-145.12,483.00
-142.61,216.00
-140.10,350.00
-137.60,-297.00
-135.09,5.00
-132.59,611.00
-130.09,201.00
-127.59,485.00
-125.09,161.00
-122.59,421.00
-120.10,-633.00
-117.60,-247.00
-115.11,618.00
-112.62,-817.00
-110.13,552.00
-107.65,-126.00
-105.16,-307.00
-102.68,-161.00
-100.20,378.00
-97.72,-119.00
-95.24,-386.00
-92.76,212.00
-90.29,211.00
-87.82,-221.00
-85.35,91.00
-82.88,141.00
-80.41,98.00
-77.94,-154.00
-75.48,-73.00
-73.01,-332.00
-70.55,35.00
-68.09,-83.00
-65.64,-139.00
-63.18,-145.00
-60.73,315.00
-58.27,220.00
-55.82,252.00
-53.37,-156.00
-50.92,54.00
-48.48,71.00
-46.03,-701.00
-43.59,-35.00
-41.15,-276.00
-38.71,527.00
-36.27,-122.00
-33.83,317.00
-31.40,150.00
-28.97,214.00
-26.53,93.00
-24.10,273.00
-21.68,506.00
-19.25,123.00
-16.82,38.00
-14.40,-44.00
-11.98,-19.00
-9.56,557.00
-7.14,-4.00
-4.72,212.00
-2.31,-302.00
0.10,-362.00
2.52,247.00
4.93,100.00
7.34,14.00
9.74,200.00
12.15,-238.00
14.55,-633.00
16.95,177.00
19.36,-66.00
21.75,-348.00
24.15,443.00
26.55,336.00
28.94,64.00
31.34,-648.00
33.73,130.00
36.12,293.00
38.50,752.00
40.89,-813.00
43.27,18.00
45.66,-66.00
48.04,287.00
50.42,534.00
52.80,839.00
55.17,-289.00
57.55,527.00
59.92,147.00
62.30,-249.00
64.67,228.00
67.04,285.00
69.40,-139.00
71.77,-417.00
74.13,268.00
76.50,513.00
78.86,252.00
81.22,-295.00
83.57,668.00
85.93,33.00
88.29,109.00
90.64,40.00
92.99,494.00
95.34,-295.00
97.69,463.00
100.04,-200.00
102.38,229.00
104.73,334.00
107.07,323.00
109.41,611.00
111.75,783.00
114.09,-84.00
116.42,138.00
118.76,395.00
121.09,31.00
123.42,284.00
125.75,-20.00
128.08,480.00
130.41,583.00
132.74,737.00
135.06,80.00
137.38,-190.00
139.70,-101.00
142.02,324.00
144.34,476.00
146.66,162.00
148.97,380.00
151.29,-145.00
153.60,258.00
155.91,-678.00
158.22,98.00
160.52,35.00
162.83,399.00
165.13,401.00
167.44,295.00
169.74,211.00
172.04,119.00
174.34,605.00
176.63,159.00
178.93,-329.00
181.22,46.00
183.52,-173.00
185.81,-386.00
188.10,-349.00
190.38,418.00
192.67,-102.00
194.96,338.00
197.24,309.00
199.52,-86.00
201.80,400.00
204.08,549.00
206.36,-227.00
208.63,462.00
210.91,475.00
213.18,-321.00
215.45,-354.00
217.72,462.00
219.99,-535.00
222.26,-135.00
224.53,288.00
226.79,22.00
229.05,166.00
231.31,260.00
233.57,-40.00
235.83,260.00
238.09,385.00
240.35,431.00
242.60,104.00
244.85,120.00
247.10,477.00
249.35,756.00
251.60,325.00
253.85,3.00
256.09,330.00
258.34,-114.00
260.58,-338.00
262.82,406.00
265.06,438.00
267.30,202.00
269.54,-704.00
271.77,54.00
274.01,413.00
276.24,-105.00
278.47,2.00
280.70,-267.00
282.93,371.00
285.15,-207.00
287.38,-88.00
289.60,235.00
291.83,193.00
294.05,377.00
296.27,260.00
298.48,-32.00
300.70,403.00
302.92,182.00
305.13,197.00
307.34,1284.00
309.56,1141.00
311.77,912.00
313.97,1277.00
316.18,-29.00
318.39,1211.00
320.59,1453.00
322.79,1513.00
324.99,1729.00
327.19,2139.00
329.39,2271.00
331.59,3506.00
333.79,3579.00
335.98,4699.00
338.17,3705.00
340.37,5788.00
342.56,6045.00
344.74,6885.00
346.93,8003.00
349.12,8494.00
351.30,9095.00
353.49,8471.00
355.67,10781.00
357.85,11964.00
360.03,10843.00
362.21,13358.00
364.38,15270.00
366.56,13698.00
368.73,13554.00
370.90,15732.00
373.08,16402.00
375.24,15161.00
377.41,13413.00
379.58,17374.00
381.75,13696.00
383.91,15882.00
386.07,16680.00
388.23,14869.00
390.39,15711.00
392.55,15656.00
394.71,14582.00
396.87,15694.00
399.02,16794.00
401.17,15014.00
403.33,16862.00
405.48,16143.00
407.63,16259.00
409.77,16317.00
411.92,14543.00
414.07,15525.00
416.21,14984.00
418.35,17263.00
420.49,16280.00
422.63,16757.00
424.77,16981.00
426.91,16213.00
429.05,15800.00
431.18,15369.00
433.31,17145.00
435.45,15599.00
437.58,16799.00
439.71,18020.00
441.83,18055.00
443.96,18971.00
446.09,17255.00
448.21,16382.00
450.33,19176.00
452.45,16672.00
454.57,19383.00
456.69,19640.00
458.81,18041.00
460.93,17040.00
463.04,18199.00
465.16,16619.00
467.27,18965.00
469.38,19261.00
471.49,18145.00
473.60,18706.00
475.70,18580.00
477.81,20106.00
479.91,19003.00
482.02,19030.00
484.12,18122.00
486.22,17904.00
488.32,18522.00
490.42,19955.00
492.51,18184.00
494.61,19411.00
496.70,18242.00
498.80,20085.00
500.89,18883.00
502.98,19431.00
505.07,18559.00
507.15,17840.00
509.24,17243.00
511.33,19625.00
513.41,19355.00
515.49,18830.00
517.57,18788.00
519.65,19745.00
521.73,17523.00
523.81,16882.00
525.89,17817.00
527.96,17448.00
530.03,17698.00
532.11,18318.00
534.18,17934.00
536.25,17897.00
538.32,15088.00
540.38,18021.00
542.45,17129.00
544.51,14867.00
546.58,16858.00
548.64,17125.00
550.70,15193.00
552.76,17347.00
554.82,14799.00
556.88,14810.00
558.93,14959.00
560.99,15964.00
563.04,15235.00
565.09,14828.00
567.14,14196.00
569.19,14262.00
571.24,16151.00
573.29,16031.00
575.34,14617.00
577.38,14593.00
579.42,14439.00
581.47,12748.00
583.51,13575.00
585.55,13793.00
587.59,13050.00
589.62,12757.00
591.66,15325.00
593.70,13471.00
595.73,12343.00
597.76,14360.00
599.79,13033.00
601.82,13534.00
603.85,11813.00
605.88,12305.00
607.91,12779.00
609.93,13835.00
611.96,14874.00
613.98,13322.00
616.00,12907.00
618.02,15263.00
620.04,13297.00
622.06,12930.00
624.08,13840.00
626.09,13190.00
628.11,13678.00
630.12,13319.00
632.13,13439.00
634.14,14669.00
636.15,14714.00
638.16,14317.00
640.17,12572.00
642.17,13204.00
644.18,13678.00
646.18,14504.00
648.18,14240.00
650.18,13960.00
652.18,13562.00
654.18,13789.00
656.18,11974.00
658.18,14652.00
660.17,12847.00
662.17,13864.00
664.16,13381.00
666.15,13632.00
668.14,14837.00
670.13,15410.00
672.12,14268.00
674.11,15568.00
676.09,13898.00
678.08,14256.00
680.06,14031.00
682.04,14584.00
684.02,14743.00
686.00,14559.00
687.98,15454.00
689.96,13986.00
691.94,13629.00
693.91,13501.00
695.89,14469.00
697.86,15242.00
699.83,13762.00
701.80,15244.00
703.77,15198.00
705.74,14407.00
707.71,15581.00
709.67,14461.00
711.64,13949.00
713.60,15377.00
715.56,15761.00
717.52,13958.00
719.48,12755.00
721.44,12458.00
723.40,13459.00
725.36,14766.00
727.31,14829.00
729.27,14577.00
731.22,15096.00
733.17,13998.00
735.13,15337.00
737.08,15040.00
739.02,15699.00
740.97,14683.00
742.92,14844.00
744.86,14498.00
746.81,14202.00
748.75,15238.00
750.69,13514.00
752.63,15141.00
754.57,14607.00
756.51,14238.00
758.45,14079.00
760.39,13333.00
762.32,15126.00
764.26,14075.00
766.19,14802.00
768.12,12903.00
770.05,14097.00
771.98,13384.00
773.91,13234.00
775.84,12810.00
777.76,13770.00
779.69,13625.00
781.61,12175.00
783.54,11249.00
785.46,12233.00
787.38,12656.00
789.30,13960.00
791.22,13914.00
793.13,12370.00
795.05,12529.00
796.97,12359.00
798.88,12495.00
800.79,11525.00
802.70,11521.00
804.62,11863.00
806.52,14685.00
808.43,12308.00
810.34,12670.00
812.25,10974.00
814.15,12092.00
816.06,12844.00
817.96,10785.00
819.86,10974.00
821.76,12437.00
823.66,12740.00
825.56,10960.00
827.46,12264.00
829.36,12527.00
831.25,12127.00
833.15,12167.00
835.04,11642.00
836.93,12581.00
838.82,12111.00
840.71,11356.00
842.60,12569.00
844.49,11556.00
846.38,11973.00
848.26,9984.00
850.15,11191.00
852.03,12124.00
853.91,11866.00
855.80,11726.00
857.68,11198.00
859.56,11067.00
861.43,11456.00
863.31,13467.00
865.19,12158.00
867.06,11056.00
868.94,12084.00
870.81,10452.00
872.68,12057.00
874.55,12193.00
876.42,10862.00
878.29,12363.00
880.16,11486.00
882.03,11225.00
883.89,12331.00
885.76,12777.00
887.62,12794.00
889.48,10825.00
891.35,10972.00
893.21,10820.00
895.07,12110.00
896.92,12268.00
898.78,10325.00
900.64,10541.00
902.49,10844.00
904.35,9904.00
906.20,11705.00
908.05,11946.00
909.90,11299.00
911.75,11832.00
913.60,12676.00
915.45,12437.00
917.30,11896.00
919.14,12229.00
920.99,11348.00
922.83,11779.00
924.68,10405.00
926.52,10207.00
928.36,10948.00
930.20,11400.00
932.04,10475.00
933.87,13545.00
935.71,12067.00
937.55,12109.00
939.38,12087.00
941.21,11419.00
943.05,11915.00
944.88,10514.00
946.71,12441.00
948.54,10798.00
950.37,11626.00
952.20,11315.00
954.02,11620.00
955.85,10378.00
957.67,11104.00
959.50,11764.00
961.32,11818.00
963.14,10662.00
964.96,10900.00
966.78,11577.00
968.60,11315.00
970.42,12034.00
972.23,10370.00
974.05,11485.00
975.86,11425.00
977.68,11106.00
979.49,12162.00
981.30,12270.00
983.11,12330.00
984.92,12884.00
986.73,11379.00
988.54,13444.00
990.34,10741.00
992.15,10452.00
993.95,11666.00
995.76,11558.00
997.56,11502.00
999.36,11132.00
1001.16,10324.00
1002.96,11146.00
1004.76,11904.00
1006.56,12011.00
1008.35,12342.00
1010.15,12221.00
1011.94,11192.00
1013.74,11684.00
1015.53,11852.00
1017.32,11352.00
1019.11,10745.00
1020.90,11494.00
1022.69,13496.00
1024.48,10644.00
1026.27,12251.00
1028.05,11378.00
1029.84,9178.00
1031.62,11207.00
1033.41,11648.00
1035.19,11792.00
1036.97,11643.00
1038.75,9747.00
1040.53,11791.00
1042.31,13643.00
1044.08,11409.00
1045.86,13225.00
1047.64,11549.00
1049.41,11752.00
1051.18,11476.00
1052.96,12721.00
1054.73,11239.00
1056.50,12295.00
1058.27,13889.00
1060.04,12889.00
1061.81,13546.00
1063.57,14073.00
1065.34,13108.00
1067.10,12391.00
1068.87,11957.00
1070.63,14088.00
1072.39,12509.00
1074.15,11922.00
1075.91,13414.00
1077.67,14800.00
1079.43,13664.00
1081.19,11194.00
1082.95,13357.00
1084.70,12825.00
1086.46,12334.00
1088.21,13017.00
1089.96,12662.00
1091.71,12071.00
1093.47,11545.00
1095.22,13183.00
1096.96,12762.00
1098.71,12056.00
1100.46,13227.00
1102.21,13266.00
1103.95,13652.00
1105.70,12343.00
1107.44,12213.00
1109.18,12139.00
1110.92,13367.00
1112.66,12021.00
1114.40,11878.00
1116.14,14142.00
1117.88,12521.00
1119.62,12434.00
1121.35,11382.00
1123.09,13256.00
1124.82,11795.00
1126.56,11445.00
1128.29,11070.00
1130.02,11921.00
1131.75,10745.00
1133.48,12392.00
1135.21,10262.00
1136.94,12325.00
1138.67,12874.00
1140.39,12454.00
1142.12,11757.00
1143.84,12828.00
1145.57,12530.00
1147.29,11359.00
1149.01,14249.00
1150.73,11028.00
1152.45,11879.00
1154.17,10890.00
1155.89,9338.00
1157.60,9463.00
1159.32,11031.00
1161.04,12313.00
1162.75,11990.00
1164.46,10543.00
1166.18,12848.00
1167.89,12345.00
1169.60,10667.00
1171.31,11798.00
1173.02,10492.00
1174.73,10445.00
1176.43,11387.00
1178.14,12248.00
1179.85,11944.00
1181.55,12878.00
1183.25,10425.00
1184.96,11816.00
1186.66,13275.00
1188.36,11284.00
1190.06,12440.00
1191.76,10343.00
1193.46,11833.00
1195.16,11431.00
1196.85,9718.00
1198.55,9981.00
1200.24,10794.00
1201.94,10360.00
1203.63,10787.00
1205.32,11322.00
1207.02,11233.00
1208.71,10845.00
1210.40,11325.00
1212.09,10320.00
1213.77,11413.00
1215.46,12167.00
1217.15,11580.00
1218.83,10132.00
1220.52,12440.00
1222.20,12283.00
1223.88,11919.00
1225.57,11305.00
1227.25,11538.00
1228.93,10081.00
1230.61,11727.00
1232.29,10832.00
1233.96,12609.00
1235.64,11555.00
1237.32,11265.00
1238.99,11673.00
1240.67,10649.00
1242.34,11958.00
1244.01,14335.00
1245.69,10999.00
1247.36,11254.00
1249.03,12427.00
1250.70,10873.00
1252.36,12894.00
1254.03,10229.00
1255.70,10652.00
1257.37,13189.00
1259.03,11527.00
1260.69,11982.00
1262.36,11515.00
1264.02,12922.00
1265.68,10274.00
1267.34,12152.00
1269.00,11556.00
1270.66,10339.00
1272.32,12366.00
1273.98,11648.00
1275.64,10703.00
1277.29,12716.00
1278.95,12166.00
1280.60,11591.00
1282.25,11480.00
1283.91,11561.00
1285.56,11740.00
1287.21,11707.00
1288.86,13586.00
1290.51,12860.00
1292.16,12212.00
1293.81,13044.00
1295.45,11917.00
1297.10,12609.00
1298.74,14114.00
1300.39,10293.00
1302.03,12125.00
1303.68,12072.00
1305.32,12638.00
1306.96,14409.00
1308.60,13159.00
1310.24,13456.00
1311.88,13075.00
1313.52,14587.00
1315.15,14207.00
1316.79,15466.00
1318.42,12217.00
1320.06,14365.00
1321.69,14176.00
1323.33,13038.00
1324.96,14253.00
1326.59,15220.00
1328.22,16246.00
1329.85,13070.00
1331.48,13837.00
1333.11,14487.00
1334.74,12435.00
1336.36,14284.00
1337.99,13688.00
1339.61,12849.00
1341.24,14886.00
1342.86,12965.00
1344.48,13070.00
1346.11,12643.00
1347.73,14105.00
1349.35,13152.00
1350.97,13066.00
1352.58,12325.00
1354.20,12642.00
1355.82,14119.00
1357.44,12592.00
1359.05,11430.00
1360.67,12462.00
1362.28,15027.00
1363.89,12407.00
1365.51,13750.00
1367.12,12348.00
1368.73,13360.00
1370.34,13753.00
1371.95,12946.00
1373.56,14431.00
1375.17,14426.00
1376.77,12434.00
1378.38,12860.00
1379.98,14266.00
1381.59,14868.00
1383.19,15301.00
1384.80,15949.00
1386.40,16570.00
1388.00,17362.00
1389.60,18838.00
1391.20,20085.00
1392.80,21378.00
1394.40,22009.00
1396.00,23839.00
1397.59,24568.00
1399.19,23789.00
1400.78,24044.00
1402.38,25802.00
1403.97,24600.00
1405.57,26233.00
1407.16,26928.00
1408.75,26505.00
1410.34,26027.00
1411.93,25276.00
1413.52,26349.00
1415.11,26522.00
1416.70,27829.00
1418.28,25481.00
1419.87,26757.00
1421.46,27641.00
1423.04,23742.00
1424.63,24326.00
1426.21,25873.00
1427.79,23223.00
1429.37,25230.00
1430.95,23519.00
1432.54,23650.00
1434.11,23327.00
1435.69,21449.00
1437.27,20250.00
1438.85,20302.00
1440.43,19452.00
1442.00,19347.00
1443.58,18895.00
1445.15,20385.00
1446.72,18809.00
1448.30,17815.00
1449.87,16280.00
1451.44,16160.00
1453.01,15481.00
1454.58,15425.00
1456.15,14307.00
1457.72,14446.00
1459.29,12920.00
1460.85,13122.00
1462.42,14025.00
1463.99,13369.00
1465.55,12824.00
1467.12,14067.00
1468.68,12713.00
1470.24,13195.00
1471.80,13193.00
1473.36,11929.00
1474.93,11963.00
1476.49,11552.00
1478.04,11186.00
1479.60,12057.00
1481.16,10994.00
1482.72,13177.00
1484.27,12185.00
1485.83,10644.00
1487.38,12259.00
1488.94,10778.00
1490.49,10254.00
1492.04,10275.00
1493.60,10880.00
1495.15,11997.00
1496.70,11092.00
1498.25,10896.00
1499.80,11467.00
1501.34,11567.00
1502.89,10786.00
1504.44,12016.00
1505.98,10506.00
1507.53,11667.00
1509.07,12096.00
1510.62,10636.00
1512.16,10225.00
1513.70,11498.00
1515.25,12307.00
1516.79,12005.00
1518.33,12519.00
1519.87,12353.00
1521.41,11291.00
1522.95,11928.00
1524.48,9929.00
1526.02,10929.00
1527.56,11091.00
1529.09,11223.00
1530.63,11475.00
1532.16,11183.00
1533.69,11316.00
1535.23,10549.00
1536.76,13196.00
1538.29,10448.00
1539.82,10678.00
1541.35,10557.00
1542.88,12791.00
1544.41,11836.00
1545.94,11186.00
1547.47,9441.00
1548.99,11147.00
1550.52,9590.00
1552.04,10975.00
1553.57,10794.00
1555.09,9709.00
1556.61,12011.00
1558.14,10220.00
1559.66,11644.00
1561.18,10189.00
1562.70,10081.00
1564.22,9678.00
1565.74,9945.00
1567.26,10413.00
1568.78,11640.00
1570.29,11753.00
1571.81,9768.00
1573.32,11007.00
1574.84,11590.00
1576.35,11435.00
1577.87,9789.00
1579.38,11494.00
1580.89,11282.00
1582.41,11301.00
1583.92,11038.00
1585.43,9234.00
1586.94,10877.00
1588.45,11293.00
1589.95,10870.00
1591.46,10764.00
1592.97,12244.00
1594.47,11510.00
1595.98,9861.00
1597.49,11851.00
1598.99,10909.00
1600.49,10675.00
1602.00,10708.00
1603.50,12490.00
1605.00,12032.00
1606.50,11905.00
1608.00,11853.00
1609.50,10969.00
1611.00,11938.00
1612.50,11354.00
1614.00,10702.00
1615.49,10379.00
1616.99,10870.00
1618.49,10768.00
1619.98,9457.00
1621.48,10759.00
1622.97,11539.00
1624.46,11341.00
1625.96,12052.00
1627.45,10921.00
1628.94,12121.00
1630.43,12243.00
1631.92,13036.00
1633.41,10347.00
1634.90,10427.00
1636.39,9745.00
1637.87,11355.00
1639.36,10982.00
1640.85,9467.00
1642.33,12790.00
1643.82,10943.00
1645.30,12622.00
1646.78,11065.00
1648.27,11186.00
1649.75,12739.00
1651.23,13055.00
1652.71,11980.00
1654.19,11052.00
1655.67,12033.00
1657.15,11470.00
1658.63,11607.00
1660.11,12586.00
1661.58,12201.00
1663.06,12874.00
1664.54,12134.00
1666.01,13165.00
1667.49,14564.00
1668.96,13239.00
1670.43,14471.00
1671.91,12705.00
1673.38,13842.00
1674.85,14482.00
1676.32,15102.00
1677.79,13156.00
1679.26,16145.00
1680.73,15066.00
1682.20,15754.00
1683.67,14757.00
1685.14,18051.00
1686.60,19677.00
1688.07,18982.00
1689.53,20839.00
1691.00,23128.00
1692.46,27674.00
1693.93,26373.00
1695.39,29703.00
1696.85,31489.00
1698.31,33034.00
1699.77,35043.00
1701.23,33904.00
1702.69,36857.00
1704.15,33952.00
1705.61,35724.00
1707.07,37117.00
1708.53,35836.00
1709.98,34408.00
1711.44,36576.00
1712.90,37014.00
1714.35,33195.00
1715.81,34798.00
1717.26,36410.00
1718.71,36541.00
1720.16,33976.00
1721.62,33156.00
1723.07,34002.00
1724.52,34699.00
1725.97,33011.00
1727.42,32418.00
1728.87,33176.00
1730.32,33575.00
1731.76,30995.00
1733.21,32935.00
1734.66,30763.00
1736.10,31995.00
1737.55,30490.00
1738.99,32568.00
1740.44,32259.00
1741.88,30453.00
1743.32,29740.00
1744.77,28799.00
1746.21,29329.00
1747.65,31328.00
1749.09,29565.00
1750.53,30120.00
1751.97,29486.00
1753.41,29700.00
1754.85,29737.00
1756.29,29405.00
1757.72,28326.00
1759.16,30062.00
1760.60,29850.00
1762.03,30524.00
1763.47,29878.00
1764.90,30235.00
1766.33,29412.00
