ENLIGHTEN Version,1.6.8
Measurement ID,20190304-083733-457000-unknown
Serial Number,unknown
Label,2019-03-04 08:44:45 AmmoniumChloride 10x300ms Spectrum
Integration Time,25
Timestamp,2019-03-04 08:37:33.457000
Note,
Temperature,-99
CCD C0,801.7174072265625
CCD C1,0.14122000336647034
CCD C2,-5.609700110653648e-06
CCD C3,-8.541699791919655e-09
CCD Offset,0
CCD Gain,1.9
Laser Wavelength,785.0
Laser Enable,True
Laser Power,100.0
Laser Temperature,-99
Pixel Count,1024

Wavenumber,Processed
265.63,105.30
267.83,133.40
270.02,174.70
272.22,218.40
274.41,296.50
276.60,381.60
278.80,483.40
280.99,626.00
283.18,794.70
285.37,968.50
287.55,1168.80
289.74,1393.10
291.93,1615.80
294.11,1849.80
296.30,2013.60
298.48,2171.30
300.66,2296.20
302.84,2384.10
305.02,2413.70
307.20,2473.20
309.38,2480.90
311.56,2497.70
313.74,2488.30
315.91,2486.60
318.09,2493.50
320.26,2495.90
322.43,2508.50
324.61,2495.70
326.78,2511.20
328.95,2508.20
331.12,2505.00
333.28,2512.10
335.45,2507.10
337.62,2516.90
339.78,2498.50
341.95,2516.90
344.11,2484.50
346.27,2469.10
348.43,2475.70
350.59,2482.10
352.75,2430.50
354.91,2434.70
357.07,2404.10
359.23,2373.20
361.38,2374.10
363.54,2331.40
365.69,2304.60
367.84,2292.30
370.00,2288.50
372.15,2239.10
374.30,2232.00
376.45,2209.10
378.59,2186.10
380.74,2154.80
382.89,2143.60
385.03,2106.70
387.18,2071.30
389.32,2080.10
391.46,2069.90
393.60,2042.70
395.74,2046.90
397.88,2042.70
400.02,2048.00
402.16,2071.40
404.29,2024.30
406.43,2044.50
408.57,2047.90
410.70,2030.30
412.83,2062.80
414.96,2087.30
417.09,2075.60
419.22,2091.90
421.35,2111.90
423.48,2111.60
425.61,2115.00
427.73,2129.80
429.86,2157.50
431.98,2194.40
434.11,2195.20
436.23,2232.10
438.35,2253.00
440.47,2279.60
442.59,2311.00
444.71,2302.30
446.82,2345.70
448.94,2343.70
451.05,2398.80
453.17,2419.70
455.28,2426.10
457.39,2443.20
459.51,2474.50
461.62,2518.40
463.73,2522.10
465.83,2560.20
467.94,2563.50
470.05,2570.10
472.15,2607.80
474.26,2621.10
476.36,2637.90
478.47,2644.00
480.57,2673.50
482.67,2664.20
484.77,2678.20
486.87,2692.10
488.97,2659.60
491.06,2668.20
493.16,2700.00
495.25,2680.40
497.35,2664.60
499.44,2658.40
501.53,2660.40
503.62,2635.90
505.71,2638.40
507.80,2611.40
509.89,2588.30
511.98,2557.70
514.07,2509.90
516.15,2507.30
518.24,2468.20
520.32,2477.40
522.40,2439.50
524.48,2393.20
526.56,2348.60
528.64,2305.20
530.72,2288.00
532.80,2258.30
534.88,2190.70
536.95,2175.50
539.03,2139.30
541.10,2114.60
543.17,2069.30
545.24,2029.00
547.32,1988.60
549.39,1967.70
551.45,1927.60
553.52,1890.70
555.59,1845.00
557.66,1820.10
559.72,1775.60
561.78,1721.50
563.85,1725.10
565.91,1680.30
567.97,1649.60
570.03,1628.00
572.09,1615.10
574.15,1597.60
576.21,1563.70
578.26,1551.90
580.32,1532.80
582.37,1546.20
584.42,1515.00
586.48,1498.00
588.53,1486.20
590.58,1473.20
592.63,1481.30
594.68,1456.30
596.72,1474.00
598.77,1455.80
600.82,1433.40
602.86,1463.40
604.90,1460.00
606.95,1457.00
608.99,1438.70
611.03,1454.70
613.07,1454.20
615.11,1462.60
617.15,1465.30
619.18,1478.90
621.22,1467.60
623.25,1474.50
625.29,1483.00
627.32,1473.40
629.35,1486.90
631.38,1490.60
633.41,1502.40
635.44,1521.80
637.47,1541.30
639.50,1522.40
641.52,1526.90
643.55,1552.40
645.57,1557.90
647.60,1542.90
649.62,1561.80
651.64,1574.70
653.66,1598.40
655.68,1581.30
657.70,1623.30
659.71,1612.00
661.73,1610.00
663.75,1627.20
665.76,1668.50
667.77,1661.00
669.79,1670.70
671.80,1666.20
673.81,1688.90
675.82,1697.80
677.83,1683.20
679.83,1711.70
681.84,1719.30
683.84,1711.90
685.85,1737.20
687.85,1738.80
689.86,1754.30
691.86,1734.60
693.86,1743.00
695.86,1759.60
697.86,1740.00
699.85,1754.40
701.85,1749.10
703.85,1748.50
705.84,1758.90
707.84,1759.50
709.83,1750.10
711.82,1753.20
713.81,1747.40
715.80,1761.60
717.79,1741.40
719.78,1751.00
721.76,1741.20
723.75,1703.60
725.74,1682.60
727.72,1701.60
729.70,1682.80
731.68,1676.30
733.67,1680.50
735.65,1658.50
737.62,1653.50
739.60,1641.30
741.58,1627.90
743.56,1611.80
745.53,1602.90
747.51,1584.60
749.48,1592.00
751.45,1569.00
753.42,1574.80
755.39,1564.10
757.36,1540.60
759.33,1536.60
761.30,1510.40
763.26,1506.70
765.23,1520.10
767.19,1475.40
769.16,1489.40
771.12,1480.00
773.08,1442.10
775.04,1436.80
777.00,1425.10
778.96,1435.10
780.92,1389.70
782.87,1437.90
784.83,1410.80
786.78,1402.50
788.74,1394.20
790.69,1377.40
792.64,1397.30
794.59,1381.00
796.54,1376.40
798.49,1342.20
800.44,1353.20
802.38,1338.40
804.33,1323.80
806.27,1328.30
808.22,1324.60
810.16,1329.90
812.10,1293.70
814.04,1325.90
815.98,1306.60
817.92,1288.70
819.86,1311.30
821.80,1273.00
823.73,1265.40
825.67,1283.90
827.60,1268.30
829.53,1273.60
831.47,1265.90
833.40,1254.70
835.33,1243.20
837.26,1242.00
839.18,1246.00
841.11,1235.10
843.04,1251.40
844.96,1232.60
846.89,1228.10
848.81,1232.50
850.73,1231.40
852.65,1237.90
854.57,1218.10
856.49,1232.40
858.41,1227.50
860.33,1235.40
862.24,1229.60
864.16,1231.10
866.07,1206.00
867.99,1202.40
869.90,1221.50
871.81,1217.30
873.72,1225.60
875.63,1219.90
877.54,1241.30
879.44,1242.50
881.35,1256.50
883.26,1234.80
885.16,1257.80
887.06,1246.50
888.97,1256.00
890.87,1265.40
892.77,1244.50
894.67,1255.90
896.57,1256.80
898.46,1250.80
900.36,1238.80
902.26,1243.50
904.15,1284.70
906.04,1267.90
907.94,1286.30
909.83,1249.90
911.72,1272.90
913.61,1240.60
915.50,1257.50
917.38,1254.70
919.27,1275.30
921.16,1235.30
923.04,1253.00
924.92,1247.50
926.81,1249.20
928.69,1233.90
930.57,1252.00
932.45,1231.50
934.33,1236.70
936.20,1220.30
938.08,1224.20
939.96,1217.40
941.83,1218.10
943.71,1224.90
945.58,1222.30
947.45,1236.90
949.32,1253.20
951.19,1240.90
953.06,1215.60
954.93,1247.10
956.79,1252.70
958.66,1239.40
960.52,1245.10
962.39,1265.20
964.25,1260.00
966.11,1245.30
967.97,1274.70
969.83,1268.40
971.69,1264.60
973.55,1268.80
975.41,1267.80
977.26,1272.60
979.12,1283.20
980.97,1271.40
982.82,1262.40
984.68,1299.70
986.53,1303.80
988.38,1283.00
990.23,1287.50
992.07,1294.20
993.92,1319.90
995.77,1309.90
997.61,1306.70
999.46,1327.30
1001.30,1330.80
1003.14,1341.30
1004.98,1332.40
1006.82,1334.50
1008.66,1348.10
1010.50,1387.00
1012.34,1403.50
1014.17,1430.70
1016.01,1428.80
1017.84,1452.10
1019.68,1482.00
1021.51,1490.90
1023.34,1505.30
1025.17,1549.70
1027.00,1548.10
1028.83,1577.80
1030.65,1585.70
1032.48,1619.50
1034.31,1655.90
1036.13,1670.20
1037.95,1698.70
1039.77,1719.80
1041.60,1740.90
1043.42,1768.90
1045.24,1794.30
1047.05,1827.40
1048.87,1838.70
1050.69,1870.80
1052.50,1887.00
1054.32,1913.50
1056.13,1925.40
1057.94,1949.30
1059.75,1963.10
1061.56,1977.10
1063.37,2020.50
1065.18,2016.20
1066.99,2047.10
1068.80,2040.70
1070.60,2066.50
1072.41,2075.50
1074.21,2091.50
1076.01,2101.90
1077.81,2130.70
1079.61,2154.70
1081.41,2140.10
1083.21,2137.90
1085.01,2181.30
1086.81,2164.60
1088.60,2131.90
1090.40,2170.30
1092.19,2172.70
1093.98,2157.10
1095.77,2195.00
1097.56,2167.20
1099.35,2183.70
1101.14,2146.00
1102.93,2202.60
1104.72,2157.00
1106.50,2178.00
1108.29,2191.30
1110.07,2196.40
1111.85,2160.50
1113.63,2179.20
1115.41,2162.40
1117.19,2168.80
1118.97,2164.60
1120.75,2167.50
1122.53,2186.60
1124.30,2141.00
1126.08,2134.10
1127.85,2131.50
1129.62,2143.50
1131.39,2168.00
1133.17,2156.10
1134.93,2133.10
1136.70,2156.10
1138.47,2123.60
1140.24,2166.00
1142.00,2134.30
1143.77,2163.80
1145.53,2174.20
1147.29,2153.50
1149.06,2147.40
1150.82,2185.60
1152.58,2156.60
1154.34,2178.80
1156.09,2159.40
1157.85,2178.20
1159.61,2163.20
1161.36,2196.60
1163.11,2197.80
1164.87,2190.60
1166.62,2204.20
1168.37,2200.50
1170.12,2191.20
1171.87,2224.90
1173.62,2234.30
1175.36,2257.00
1177.11,2252.80
1178.85,2230.40
1180.60,2254.50
1182.34,2255.70
1184.08,2288.40
1185.82,2266.00
1187.56,2289.60
1189.30,2322.30
1191.04,2307.90
1192.78,2317.30
1194.51,2325.60
1196.25,2347.10
1197.98,2319.70
1199.71,2387.30
1201.45,2359.20
1203.18,2367.00
1204.91,2395.20
1206.64,2419.60
1208.36,2410.80
1210.09,2412.10
1211.82,2438.60
1213.54,2467.70
1215.27,2442.30
1216.99,2486.20
1218.71,2528.40
1220.43,2552.60
1222.15,2557.90
1223.87,2558.00
1225.59,2592.20
1227.31,2648.00
1229.02,2649.70
1230.74,2689.20
1232.45,2670.30
1234.16,2764.70
1235.88,2782.30
1237.59,2800.30
1239.30,2871.90
1241.01,2870.80
1242.71,2880.70
1244.42,2931.40
1246.13,2967.80
1247.83,3011.30
1249.54,3046.30
1251.24,3090.00
1252.94,3145.30
1254.64,3192.60
1256.34,3247.40
1258.04,3251.80
1259.74,3353.90
1261.44,3366.30
1263.13,3445.60
1264.83,3515.10
1266.52,3552.50
1268.22,3614.80
1269.91,3705.60
1271.60,3724.50
1273.29,3810.00
1274.98,3840.50
1276.67,3936.10
1278.35,4012.00
1280.04,4093.90
1281.73,4190.40
1283.41,4249.70
1285.09,4335.10
1286.78,4381.00
1288.46,4501.70
1290.14,4599.10
1291.82,4656.00
1293.49,4765.40
1295.17,4875.00
1296.85,4929.80
1298.52,5020.10
1300.20,5099.90
1301.87,5193.30
1303.54,5346.60
1305.21,5418.30
1306.88,5490.60
1308.55,5592.40
1310.22,5695.10
1311.89,5748.70
1313.56,5784.10
1315.22,5867.80
1316.89,5925.30
1318.55,6066.40
1320.21,6031.50
1321.87,6136.70
1323.53,6192.90
1325.19,6233.30
1326.85,6300.00
1328.51,6316.80
1330.16,6378.60
1331.82,6431.20
1333.47,6484.90
1335.13,6492.00
1336.78,6510.00
1338.43,6531.50
1340.08,6602.60
1341.73,6592.60
1343.38,6625.80
1345.03,6611.70
1346.67,6662.10
1348.32,6630.10
1349.96,6647.90
1351.61,6700.20
1353.25,6684.30
1354.89,6666.90
1356.53,6672.50
1358.17,6742.40
1359.81,6668.40
1361.45,6642.30
1363.08,6660.30
1364.72,6660.30
1366.35,6669.40
1367.99,6666.30
1369.62,6691.40
1371.25,6661.40
1372.88,6646.90
1374.51,6698.70
1376.14,6721.20
1377.77,6653.20
1379.39,6728.20
1381.02,6720.20
1382.64,6844.40
1384.27,6909.00
1385.89,6974.40
1387.51,7132.80
1389.13,7385.20
1390.75,7700.00
1392.37,8178.10
1393.99,8846.10
1395.60,9628.20
1397.22,10563.80
1398.83,11352.30
1400.45,11943.60
1402.06,12323.60
1403.67,12258.50
1405.28,11898.90
1406.89,11354.80
1408.50,10685.20
1410.11,10032.30
1411.71,9516.40
1413.32,9112.50
1414.92,8775.80
1416.53,8570.30
1418.13,8410.20
1419.73,8330.70
1421.33,8230.00
1422.93,8161.80
1424.53,8134.30
1426.13,8027.30
1427.72,7897.50
1429.32,7751.90
1430.91,7628.40
1432.51,7481.20
1434.10,7454.50
1435.69,7229.00
1437.28,7140.20
1438.87,7081.60
1440.46,6929.40
1442.05,6847.20
1443.64,6698.50
1445.22,6560.60
1446.81,6468.20
1448.39,6350.00
1449.97,6175.00
1451.55,6070.80
1453.14,5959.70
1454.72,5833.60
1456.29,5740.20
1457.87,5663.60
1459.45,5608.70
1461.02,5608.50
1462.60,5559.50
1464.17,5558.80
1465.75,5515.10
1467.32,5490.70
1468.89,5512.20
1470.46,5474.00
1472.03,5473.40
1473.59,5468.40
1475.16,5482.70
1476.73,5478.80
1478.29,5438.70
1479.86,5463.10
1481.42,5445.10
1482.98,5452.10
1484.54,5459.30
1486.10,5454.00
1487.66,5444.10
1489.22,5433.70
1490.77,5454.00
1492.33,5478.30
1493.88,5495.40
1495.44,5535.20
1496.99,5535.20
1498.54,5462.80
1500.09,5532.10
1501.64,5535.20
1503.19,5539.10
1504.74,5499.40
1506.29,5522.30
1507.83,5534.00
1509.38,5534.50
1510.92,5526.70
1512.47,5533.20
1514.01,5520.20
1515.55,5517.50
1517.09,5540.80
1518.63,5504.20
1520.16,5514.70
1521.70,5500.10
1523.24,5501.70
1524.77,5490.50
1526.31,5511.50
1527.84,5495.90
1529.37,5507.20
1530.90,5493.60
1532.43,5544.90
1533.96,5528.30
1535.49,5458.40
1537.02,5495.40
1538.54,5480.70
1540.07,5472.90
1541.59,5493.90
1543.11,5480.10
1544.64,5448.50
1546.16,5459.20
1547.68,5438.10
1549.20,5443.80
1550.71,5397.30
1552.23,5393.20
1553.75,5389.80
1555.26,5359.00
1556.78,5348.00
1558.29,5381.30
1559.80,5401.80
1561.31,5371.40
1562.82,5325.50
1564.33,5329.40
1565.84,5335.60
1567.35,5321.10
1568.85,5297.20
1570.36,5289.80
1571.86,5255.00
1573.36,5269.30
1574.87,5228.70
1576.37,5213.30
1577.87,5190.70
1579.37,5176.00
1580.87,5163.30
1582.36,5159.70
1583.86,5133.20
1585.35,5150.10
1586.85,5113.90
1588.34,5130.60
1589.83,5110.50
1591.32,5119.80
1592.81,5078.00
1594.30,5098.70
1595.79,5111.30
1597.28,5083.50
1598.76,5091.90
1600.25,5026.80
1601.73,5055.30
1603.22,5054.50
1604.70,5069.70
1606.18,4981.70
1607.66,5059.90
1609.14,5027.80
1610.62,5035.90
1612.10,5019.20
1613.57,5044.80
1615.05,5006.60
1616.52,5001.30
1617.99,5036.70
1619.47,5006.70
1620.94,5022.60
1622.41,5017.60
1623.88,4950.20
1625.35,4945.50
1626.81,5001.30
1628.28,5001.40
1629.74,5022.90
1631.21,5008.60
1632.67,5047.10
1634.13,4982.00
1635.60,5000.30
1637.06,5001.40
1638.51,5011.90
1639.97,5004.20
1641.43,5006.70
1642.89,4984.80
1644.34,5059.70
1645.80,5030.80
1647.25,5029.20
1648.70,5033.70
1650.15,5059.40
1651.60,5073.30
1653.05,5047.20
1654.50,5122.80
1655.95,5072.40
1657.40,5092.40
1658.84,5120.50
1660.28,5150.90
1661.73,5150.70
1663.17,5160.60
1664.61,5188.90
1666.05,5145.10
1667.49,5176.00
1668.93,5195.10
1670.37,5256.80
1671.80,5277.60
1673.24,5330.40
1674.67,5325.00
1676.11,5328.60
1677.54,5356.20
1678.97,5429.50
1680.40,5428.20
1681.83,5503.30
1683.26,5499.70
1684.69,5595.20
1686.11,5674.50
1687.54,5690.00
1688.96,5820.20
1690.39,5898.90
1691.81,6013.40
1693.23,6097.20
1694.65,6283.70
1696.07,6530.70
1697.49,6920.00
1698.91,7427.30
1700.32,8209.50
1701.74,9362.40
1703.15,10798.60
1704.57,12486.50
1705.98,14018.70
1707.39,15216.40
1708.80,15660.50
1710.21,15301.70
1711.62,14333.40
1713.03,12888.60
1714.43,11278.60
1715.84,9886.30
1717.24,8720.40
1718.65,7949.60
1720.05,7410.30
1721.45,7080.80
1722.85,6927.40
1724.25,6790.80
1725.65,6745.80
1727.05,6685.40
1728.44,6679.90
1729.84,6724.40
1731.23,6743.30
1732.63,6746.40
1734.02,6830.60
1735.41,6874.50
1736.80,6876.40
1738.19,6968.30
1739.58,7001.60
1740.97,7082.90
1742.35,7111.20
1743.74,7196.70
1745.12,7226.50
1746.51,7270.90
1747.89,7275.90
1749.27,7324.20
1750.65,7394.40
1752.03,7423.70
1753.41,7456.80
1754.79,7520.70
1756.17,7473.50
1757.54,7512.90
1758.92,7522.80
1760.29,7558.90
1761.66,7531.50
1763.03,7538.80
1764.41,7550.70
1765.78,7486.50
1767.14,7488.70
1768.51,7438.40
1769.88,7416.20
1771.24,7374.50
1772.61,7287.40
1773.97,7264.40
1775.34,7190.60
1776.70,7083.20
1778.06,7039.80
1779.42,6932.70
1780.78,6853.40
1782.13,6744.10
1783.49,6609.10
1784.85,6516.60
1786.20,6416.50
1787.56,6262.30
1788.91,6169.90
1790.26,6094.30
1791.61,5962.10
1792.96,5805.60
1794.31,5703.00
1795.66,5607.50
1797.00,5473.40
1798.35,5380.60
1799.69,5250.70
1801.04,5190.00
1802.38,5055.30
1803.72,4934.80
1805.06,4879.00
1806.40,4749.10
1807.74,4683.10
1809.08,4582.80
1810.42,4512.30
1811.75,4396.60
1813.09,4334.90
1814.42,4254.80
1815.76,4225.80
1817.09,4158.20
1818.42,4037.10
1819.75,3941.80
1821.08,3927.80
1822.40,3864.30
1823.73,3849.80
1825.06,3766.40
1826.38,3696.70
1827.71,3641.10
1829.03,3627.60
1830.35,3585.60
1831.67,3556.90
1832.99,3520.30
1834.31,3483.90
1835.63,3449.10
1836.95,3439.20
1838.26,3398.90
1839.58,3350.40
1840.89,3342.00
1842.20,3286.70
1843.52,3291.30
1844.83,3287.40
1846.14,3264.30
1847.45,3223.30
1848.75,3226.60
1850.06,3219.90
1851.37,3168.80
1852.67,3172.50
1853.98,3180.10
1855.28,3151.00
1856.58,3136.60
1857.88,3107.70
1859.18,3131.60
1860.48,3130.40
1861.78,3128.50
1863.08,3093.60
1864.37,3089.20
1865.67,3086.30
1866.96,3053.70
1868.26,3065.50
1869.55,3033.10
1870.84,3068.10
1872.13,3064.00
1873.42,3061.10
1874.71,3093.00
1875.99,3034.40
1877.28,3058.30
1878.56,3048.00
1879.85,3000.70
1881.13,3029.20
1882.41,2987.30
1883.69,2986.70
1884.97,3011.50
1886.25,2997.50
1887.53,2997.20
1888.81,2992.70
1890.09,2978.60
1891.36,2989.50
1892.63,2965.10
1893.91,2991.70
1895.18,2946.20
1896.45,3007.50
1897.72,3013.90
1898.99,2996.70
1900.26,2969.00
1901.53,2975.60
1902.79,2993.90
1904.06,2966.60
1905.32,2993.40
1906.58,2971.60
1907.85,2970.30
1909.11,2970.00
1910.37,2967.70
1911.63,2969.10
1912.89,2981.50
1914.14,2962.60
1915.40,2975.10
1916.65,3010.80
1917.91,2982.70
1919.16,2985.20
1920.41,2964.00
1921.67,2987.90
1922.92,2983.40
1924.17,2977.00
1925.41,3011.10
1926.66,2995.60
1927.91,2970.30
1929.15,3001.40
1930.40,3012.20
1931.64,3029.60
1932.88,3066.10
1934.12,3016.20
1935.36,3018.20
1936.60,3061.10
1937.84,3039.90
1939.08,3073.40
1940.32,3077.40
1941.55,3101.90
1942.79,3116.60
1944.02,3100.00
1945.25,3118.20
1946.48,3167.50
1947.71,3181.40
1948.94,3172.80
1950.17,3225.70
1951.40,3232.80
1952.62,3246.10
1953.85,3269.50
1955.07,3273.00
1956.30,3302.00
1957.52,3303.90
1958.74,3355.00
1959.96,3377.90
1961.18,3404.10
1962.40,3413.50
1963.62,3449.00
1964.83,3464.00
1966.05,3476.00
1967.26,3487.60
1968.48,3545.70
1969.69,3591.00
1970.90,3600.40
1972.11,3608.20
1973.32,3679.80
1974.53,3704.00
1975.74,3678.80
1976.94,3703.60
1978.15,3766.30
1979.35,3778.80
1980.56,3805.20
1981.76,3819.70
1982.96,3884.70
1984.16,3876.20
1985.36,3894.40
1986.56,3918.60
1987.76,3926.80
1988.95,3955.40
1990.15,3925.80
1991.34,3952.30
1992.54,3976.20
1993.73,3977.80
1994.92,3986.50
1996.11,3979.20
1997.30,3964.60
1998.49,3968.20
1999.68,3965.20
