ENLIGHTEN Version,1.6.8
Measurement ID,20190528-111002-514282-WP-00357
Serial Number,WP-00357
Label,Benzene
Integration Time,1
Timestamp,2019-05-28 11:10:02.514282
Note,
Temperature,-99
CCD C0,801.1829833984375
CCD C1,0.12474799901247025
CCD C2,-2.2862799596623518e-05
CCD C3,4.907460215974879e-09
CCD Offset,0
CCD Gain,1.9
Laser Wavelength,785.0
Laser Enable,False
Laser Power,100.0
Laser Temperature,-99
Pixel Count,1952

Wavenumber,Processed
257.31,0.00
259.25,0.00
261.19,0.00
263.13,-556.00
265.07,-104.00
267.01,654.00
268.95,-315.00
270.88,-314.00
272.82,85.00
274.75,149.00
276.68,270.00
278.61,225.00
280.54,439.00
282.46,606.00
284.39,-885.00
286.31,33.00
288.24,-349.00
290.16,-141.00
292.08,349.00
294.00,6.00
295.92,-121.00
297.83,95.00
299.75,-86.00
301.66,553.00
303.58,-462.00
305.49,149.00
307.40,-308.00
309.31,-38.00
311.22,-497.00
313.12,3.00
315.03,-220.00
316.93,187.00
318.83,-571.00
320.73,306.00
322.63,151.00
324.53,-461.00
326.43,408.00
328.33,540.00
330.22,591.00
332.12,590.00
334.01,-102.00
335.90,72.00
337.79,-561.00
339.68,400.00
341.57,55.00
343.45,-252.00
345.34,153.00
347.22,13.00
349.10,-202.00
350.98,154.00
352.86,74.00
354.74,-109.00
356.62,-393.00
358.50,66.00
360.37,-55.00
362.24,755.00
364.12,-266.00
365.99,596.00
367.86,-537.00
369.73,302.00
371.59,225.00
373.46,127.00
375.33,-547.00
377.19,-114.00
379.05,573.00
380.91,272.00
382.77,34.00
384.63,-351.00
386.49,-487.00
388.35,-67.00
390.20,581.00
392.06,133.00
393.91,1.00
395.76,299.00
397.61,581.00
399.46,361.00
401.31,693.00
403.15,253.00
405.00,-4.00
406.84,401.00
408.69,-185.00
410.53,-9.00
412.37,86.00
414.21,520.00
416.05,259.00
417.88,-258.00
419.72,486.00
421.55,-135.00
423.39,899.00
425.22,-391.00
427.05,-144.00
428.88,235.00
430.71,-822.00
432.54,498.00
434.36,-452.00
436.19,555.00
438.01,442.00
439.83,564.00
441.65,-193.00
443.48,-365.00
445.29,-324.00
447.11,839.00
448.93,-258.00
450.74,-218.00
452.56,-72.00
454.37,304.00
456.18,-394.00
457.99,-557.00
459.80,432.00
461.61,-35.00
463.42,6.00
465.23,71.00
467.03,-295.00
468.83,362.00
470.64,197.00
472.44,296.00
474.24,156.00
476.04,-165.00
477.84,-83.00
479.63,-64.00
481.43,-741.00
483.22,-268.00
485.02,-592.00
486.81,148.00
488.60,-134.00
490.39,260.00
492.18,258.00
493.96,69.00
495.75,243.00
497.54,-106.00
499.32,576.00
501.10,196.00
502.88,-500.00
504.67,-161.00
506.45,287.00
508.22,164.00
510.00,-110.00
511.78,-563.00
513.55,-18.00
515.33,37.00
517.10,194.00
518.87,124.00
520.64,1162.00
522.41,1153.00
524.18,140.00
525.94,-334.00
527.71,-434.00
529.47,-576.00
531.24,753.00
533.00,511.00
534.76,-165.00
536.52,-400.00
538.28,-177.00
540.04,183.00
541.80,424.00
543.55,-451.00
545.31,-65.00
547.06,231.00
548.81,-159.00
550.56,-440.00
552.31,80.00
554.06,-660.00
555.81,433.00
557.56,548.00
559.30,823.00
561.05,367.00
562.79,437.00
564.53,482.00
566.28,490.00
568.02,176.00
569.75,362.00
571.49,-489.00
573.23,241.00
574.97,493.00
576.70,1007.00
578.43,330.00
580.17,265.00
581.90,208.00
583.63,438.00
585.36,533.00
587.09,218.00
588.81,879.00
590.54,-778.00
592.26,569.00
593.99,1130.00
595.71,354.00
597.43,1868.00
599.15,2070.00
600.87,2311.00
602.59,2750.00
604.31,2411.00
606.02,2683.00
607.74,2315.00
609.45,3436.00
611.17,3105.00
612.88,2255.00
614.59,1821.00
616.30,1605.00
618.01,243.00
619.71,753.00
621.42,684.00
623.13,745.00
624.83,10.00
626.53,-572.00
628.24,-351.00
629.94,53.00
631.64,600.00
633.34,110.00
635.04,220.00
636.73,17.00
638.43,131.00
640.12,739.00
641.82,161.00
643.51,601.00
645.20,110.00
646.89,122.00
648.58,476.00
650.27,30.00
651.96,140.00
653.65,-372.00
655.33,925.00
657.02,316.00
658.70,-779.00
660.38,-77.00
662.06,194.00
663.74,-147.00
665.42,-25.00
667.10,21.00
668.78,444.00
670.45,311.00
672.13,105.00
673.80,565.00
675.48,414.00
677.15,-376.00
678.82,57.00
680.49,341.00
682.16,152.00
683.83,569.00
685.49,-521.00
687.16,225.00
688.82,-125.00
690.49,-403.00
692.15,251.00
693.81,-12.00
695.47,611.00
697.13,-328.00
698.79,318.00
700.45,-609.00
702.11,508.00
703.76,345.00
705.42,281.00
707.07,121.00
708.72,650.00
710.37,-322.00
712.02,-118.00
713.67,-133.00
715.32,-470.00
716.97,149.00
718.62,53.00
720.26,94.00
721.91,425.00
723.55,163.00
725.19,764.00
726.84,467.00
728.48,167.00
730.12,325.00
731.75,-61.00
733.39,-511.00
735.03,104.00
736.66,-48.00
738.30,153.00
739.93,119.00
741.57,-223.00
743.20,96.00
744.83,-496.00
746.46,-96.00
748.09,-146.00
749.71,243.00
751.34,471.00
752.97,-186.00
754.59,487.00
756.22,343.00
757.84,90.00
759.46,192.00
761.08,422.00
762.70,-443.00
764.32,1027.00
765.94,29.00
767.56,-349.00
769.17,187.00
770.79,-883.00
772.40,250.00
774.01,212.00
775.63,-89.00
777.24,22.00
778.85,-199.00
780.46,91.00
782.07,-167.00
783.67,46.00
785.28,36.00
786.88,659.00
788.49,315.00
790.09,-381.00
791.70,201.00
793.30,-582.00
794.90,206.00
796.50,89.00
798.10,313.00
799.69,395.00
801.29,455.00
802.89,418.00
804.48,-117.00
806.08,201.00
807.67,139.00
809.26,368.00
810.85,-1164.00
812.44,-458.00
814.03,-32.00
815.62,4.00
817.21,171.00
818.79,-512.00
820.38,510.00
821.96,-126.00
823.55,840.00
825.13,-105.00
826.71,61.00
828.29,-276.00
829.87,561.00
831.45,-337.00
833.03,957.00
834.61,583.00
836.18,13.00
837.76,620.00
839.33,469.00
840.91,423.00
842.48,313.00
844.05,-995.00
845.62,839.00
847.19,34.00
848.76,230.00
850.33,1472.00
851.90,-88.00
853.46,955.00
855.03,865.00
856.59,550.00
858.15,-505.00
859.72,-466.00
861.28,-427.00
862.84,-99.00
864.40,499.00
865.96,320.00
867.52,75.00
869.07,-596.00
870.63,825.00
872.18,535.00
873.74,606.00
875.29,192.00
876.84,37.00
878.40,905.00
879.95,347.00
881.50,90.00
883.04,-418.00
884.59,325.00
886.14,23.00
887.69,176.00
889.23,-67.00
890.78,620.00
892.32,-451.00
893.86,-71.00
895.40,-108.00
896.94,-34.00
898.48,495.00
900.02,722.00
901.56,539.00
903.10,-761.00
904.63,178.00
906.17,493.00
907.70,202.00
909.24,497.00
910.77,132.00
912.30,185.00
913.83,136.00
915.36,252.00
916.89,398.00
918.42,601.00
919.95,949.00
921.48,188.00
923.00,-416.00
924.53,-699.00
926.05,668.00
927.57,136.00
929.10,62.00
930.62,499.00
932.14,619.00
933.66,242.00
935.18,226.00
936.70,571.00
938.21,277.00
939.73,254.00
941.24,391.00
942.76,-73.00
944.27,659.00
945.79,66.00
947.30,52.00
948.81,-77.00
950.32,60.00
951.83,211.00
953.34,290.00
954.84,167.00
956.35,534.00
957.86,346.00
959.36,686.00
960.87,621.00
962.37,1349.00
963.87,971.00
965.37,956.00
966.88,441.00
968.38,2459.00
969.87,1670.00
971.37,2801.00
972.87,2733.00
974.37,3151.00
975.86,4593.00
977.36,6567.00
978.85,8782.00
980.35,12895.00
981.84,16981.00
983.33,22751.00
984.82,27648.00
986.31,34177.00
987.80,38990.00
989.29,44277.00
990.77,49596.00
992.26,52183.00
993.75,49977.00
995.23,48533.00
996.72,44270.00
998.20,40043.00
999.68,32419.00
1001.16,26801.00
1002.64,21838.00
1004.12,16259.00
1005.60,9235.00
1007.08,7802.00
1008.56,5027.00
1010.04,3237.00
1011.51,3256.00
1012.99,2241.00
1014.46,1464.00
1015.93,1006.00
1017.41,618.00
1018.88,1353.00
1020.35,294.00
1021.82,644.00
1023.29,583.00
1024.76,542.00
1026.23,625.00
1027.69,340.00
1029.16,574.00
1030.62,818.00
1032.09,186.00
1033.55,133.00
1035.02,1270.00
1036.48,916.00
1037.94,-339.00
1039.40,484.00
1040.86,400.00
1042.32,-96.00
1043.78,656.00
1045.23,-466.00
1046.69,19.00
1048.15,148.00
1049.60,-425.00
1051.05,39.00
1052.51,292.00
1053.96,472.00
1055.41,-153.00
1056.86,36.00
1058.31,375.00
1059.76,373.00
1061.21,442.00
1062.66,570.00
1064.10,22.00
1065.55,372.00
1067.00,292.00
1068.44,-207.00
1069.88,38.00
1071.33,722.00
1072.77,953.00
1074.21,206.00
1075.65,757.00
1077.09,433.00
1078.53,35.00
1079.97,164.00
1081.41,-214.00
1082.84,-2.00
1084.28,401.00
1085.71,330.00
1087.15,-105.00
1088.58,195.00
1090.02,354.00
1091.45,584.00
1092.88,66.00
1094.31,189.00
1095.74,338.00
1097.17,1156.00
1098.60,222.00
1100.02,293.00
1101.45,-104.00
1102.88,-94.00
1104.30,-495.00
1105.73,-171.00
1107.15,-206.00
1108.57,-278.00
1109.99,-304.00
1111.42,119.00
1112.84,-188.00
1114.26,235.00
1115.68,130.00
1117.09,281.00
1118.51,-208.00
1119.93,-128.00
1121.34,173.00
1122.76,302.00
1124.17,-253.00
1125.59,-153.00
1127.00,-198.00
1128.41,332.00
1129.82,464.00
1131.24,-52.00
1132.65,694.00
1134.05,1308.00
1135.46,-287.00
1136.87,-198.00
1138.28,-239.00
1139.68,-55.00
1141.09,487.00
1142.50,389.00
1143.90,714.00
1145.30,-278.00
1146.71,35.00
1148.11,411.00
1149.51,148.00
1150.91,802.00
1152.31,105.00
1153.71,517.00
1155.11,1130.00
1156.50,1028.00
1157.90,970.00
1159.30,944.00
1160.69,1234.00
1162.08,1152.00
1163.48,1662.00
1164.87,1657.00
1166.26,1791.00
1167.66,3450.00
1169.05,2112.00
1170.44,3590.00
1171.83,2760.00
1173.21,3062.00
1174.60,3437.00
1175.99,3332.00
1177.38,3161.00
1178.76,4083.00
1180.15,3979.00
1181.53,3815.00
1182.92,3131.00
1184.30,3867.00
1185.68,2336.00
1187.06,1965.00
1188.44,1871.00
1189.82,1405.00
1191.20,1783.00
1192.58,1605.00
1193.96,575.00
1195.34,1772.00
1196.71,1355.00
1198.09,588.00
1199.46,171.00
1200.84,-4.00
1202.21,622.00
1203.58,619.00
1204.96,867.00
1206.33,573.00
1207.70,195.00
1209.07,230.00
1210.44,1034.00
1211.81,-279.00
1213.17,122.00
1214.54,333.00
1215.91,39.00
1217.27,557.00
1218.64,58.00
1220.00,452.00
1221.37,-712.00
1222.73,544.00
1224.09,105.00
1225.45,-209.00
1226.82,577.00
1228.18,-449.00
1229.54,-40.00
1230.89,424.00
1232.25,264.00
1233.61,712.00
1234.97,687.00
1236.32,158.00
1237.68,350.00
1239.03,-527.00
1240.39,49.00
1241.74,55.00
1243.09,495.00
1244.45,136.00
1245.80,68.00
1247.15,-816.00
1248.50,55.00
1249.85,280.00
1251.20,55.00
1252.54,199.00
1253.89,-236.00
1255.24,-689.00
1256.58,948.00
1257.93,171.00
1259.27,557.00
1260.62,-171.00
1261.96,-50.00
1263.30,-607.00
1264.64,512.00
1265.98,-413.00
1267.33,672.00
1268.67,276.00
1270.00,-40.00
1271.34,-134.00
1272.68,218.00
1274.02,691.00
1275.35,-464.00
1276.69,186.00
1278.03,-1011.00
1279.36,-916.00
1280.69,-745.00
1282.03,69.00
1283.36,162.00
1284.69,368.00
1286.02,-309.00
1287.35,-87.00
1288.68,10.00
1290.01,-301.00
1291.34,-229.00
1292.67,-199.00
1294.00,230.00
1295.32,-504.00
1296.65,169.00
1297.97,43.00
1299.30,-330.00
1300.62,-544.00
1301.94,-515.00
1303.27,-550.00
1304.59,-584.00
1305.91,-66.00
1307.23,-252.00
1308.55,-5.00
1309.87,233.00
1311.19,-320.00
1312.51,-195.00
1313.82,320.00
1315.14,403.00
1316.46,-110.00
1317.77,-134.00
1319.09,-77.00
1320.40,-431.00
1321.72,-116.00
1323.03,-458.00
1324.34,-105.00
1325.65,170.00
1326.96,-238.00
1328.27,-456.00
1329.58,-1041.00
1330.89,-127.00
1332.20,310.00
1333.51,144.00
1334.82,-482.00
1336.12,-497.00
1337.43,-13.00
1338.73,435.00
1340.04,-161.00
1341.34,-355.00
1342.65,-150.00
1343.95,-211.00
1345.25,228.00
1346.55,101.00
1347.85,40.00
1349.15,204.00
1350.45,372.00
1351.75,565.00
1353.05,342.00
1354.35,51.00
1355.65,-256.00
1356.94,179.00
1358.24,871.00
1359.53,-27.00
1360.83,-101.00
1362.12,46.00
1363.42,410.00
1364.71,-569.00
1366.00,-214.00
1367.29,811.00
1368.58,-377.00
1369.87,-626.00
1371.16,-579.00
1372.45,350.00
1373.74,-356.00
1375.03,-510.00
1376.32,41.00
1377.60,-163.00
1378.89,-194.00
1380.17,118.00
1381.46,-11.00
1382.74,-438.00
1384.03,394.00
1385.31,-299.00
1386.59,-23.00
1387.87,700.00
1389.15,367.00
1390.43,389.00
1391.71,-385.00
1392.99,173.00
1394.27,658.00
1395.55,-93.00
1396.83,248.00
1398.11,-141.00
1399.38,-403.00
1400.66,47.00
1401.93,328.00
1403.21,755.00
1404.48,268.00
1405.75,-100.00
1407.03,42.00
1408.30,23.00
1409.57,-273.00
1410.84,-362.00
1412.11,55.00
1413.38,722.00
1414.65,-62.00
1415.92,-305.00
1417.19,229.00
1418.46,-408.00
1419.72,240.00
1420.99,367.00
1422.25,-326.00
1423.52,-413.00
1424.78,-154.00
1426.05,-90.00
1427.31,193.00
1428.57,247.00
1429.84,454.00
1431.10,-82.00
1432.36,-640.00
1433.62,-224.00
1434.88,-633.00
1436.14,745.00
1437.40,-804.00
1438.65,-410.00
1439.91,270.00
1441.17,-555.00
1442.43,-308.00
1443.68,-244.00
1444.94,-40.00
1446.19,-406.00
1447.44,122.00
1448.70,7.00
1449.95,-510.00
1451.20,-234.00
1452.46,462.00
1453.71,482.00
1454.96,332.00
1456.21,403.00
1457.46,6.00
1458.71,-153.00
1459.95,-69.00
1461.20,360.00
1462.45,624.00
1463.70,31.00
1464.94,398.00
1466.19,-443.00
1467.43,108.00
1468.68,-116.00
1469.92,-501.00
1471.16,-282.00
1472.41,-109.00
1473.65,253.00
1474.89,330.00
1476.13,-398.00
1477.37,117.00
1478.61,29.00
1479.85,725.00
1481.09,461.00
1482.33,-846.00
1483.57,194.00
1484.80,-280.00
1486.04,-140.00
1487.28,238.00
1488.51,129.00
1489.75,-618.00
1490.98,54.00
1492.21,-825.00
1493.45,95.00
1494.68,164.00
1495.91,408.00
1497.14,102.00
1498.37,189.00
1499.61,409.00
1500.84,-161.00
1502.06,-654.00
1503.29,140.00
1504.52,601.00
1505.75,241.00
1506.98,-381.00
1508.20,-196.00
1509.43,-207.00
1510.66,-116.00
1511.88,-115.00
1513.11,210.00
1514.33,101.00
1515.55,11.00
1516.78,531.00
1518.00,28.00
1519.22,412.00
1520.44,143.00
1521.66,15.00
1522.88,333.00
1524.10,-528.00
1525.32,534.00
1526.54,-231.00
1527.76,-273.00
1528.98,-19.00
1530.19,21.00
1531.41,503.00
1532.63,270.00
1533.84,472.00
1535.06,340.00
1536.27,-144.00
1537.48,528.00
1538.70,980.00
1539.91,-96.00
1541.12,-239.00
1542.33,-234.00
1543.55,-334.00
1544.76,-176.00
1545.97,-536.00
1547.18,627.00
1548.39,79.00
1549.59,28.00
1550.80,-425.00
1552.01,381.00
1553.22,116.00
1554.42,68.00
1555.63,807.00
1556.84,-114.00
1558.04,8.00
1559.24,-19.00
1560.45,-447.00
1561.65,159.00
1562.86,116.00
1564.06,246.00
1565.26,583.00
1566.46,268.00
1567.66,674.00
1568.86,207.00
1570.06,-75.00
1571.26,664.00
1572.46,1273.00
1573.66,483.00
1574.86,1118.00
1576.05,1063.00
1577.25,1454.00
1578.45,559.00
1579.64,889.00
1580.84,1253.00
1582.03,1491.00
1583.23,1540.00
1584.42,1514.00
1585.61,2621.00
1586.81,1991.00
1588.00,1895.00
1589.19,1235.00
1590.38,1005.00
1591.57,2142.00
1592.76,1775.00
1593.95,1523.00
1595.14,1853.00
1596.33,1529.00
1597.52,1142.00
1598.71,2113.00
1599.90,1216.00
1601.08,1732.00
1602.27,1251.00
1603.45,1344.00
1604.64,1429.00
1605.83,1624.00
1607.01,1692.00
1608.19,900.00
1609.38,798.00
1610.56,1570.00
1611.74,1422.00
1612.92,875.00
1614.11,1171.00
1615.29,436.00
1616.47,975.00
1617.65,1655.00
1618.83,373.00
1620.01,662.00
1621.18,1090.00
1622.36,1357.00
1623.54,148.00
1624.72,909.00
1625.89,750.00
1627.07,-315.00
1628.25,-7.00
1629.42,483.00
1630.60,148.00
1631.77,-135.00
1632.94,521.00
1634.12,589.00
1635.29,213.00
1636.46,387.00
1637.63,-103.00
1638.80,-212.00
1639.98,278.00
1641.15,-89.00
1642.32,96.00
1643.49,-10.00
1644.65,133.00
1645.82,-36.00
1646.99,535.00
1648.16,-67.00
1649.33,827.00
1650.49,-4.00
1651.66,290.00
1652.82,301.00
1653.99,-164.00
1655.15,196.00
1656.32,105.00
1657.48,444.00
1658.65,-28.00
1659.81,134.00
1660.97,641.00
1662.13,850.00
1663.29,20.00
1664.45,-911.00
1665.62,-24.00
1666.78,265.00
1667.94,470.00
1669.09,-186.00
1670.25,-1.00
1671.41,154.00
1672.57,-48.00
1673.73,-115.00
1674.88,-400.00
1676.04,491.00
1677.20,555.00
1678.35,727.00
1679.51,-320.00
1680.66,-111.00
1681.82,-67.00
1682.97,-111.00
1684.12,-420.00
1685.27,-23.00
1686.43,134.00
1687.58,340.00
1688.73,90.00
1689.88,-89.00
1691.03,497.00
1692.18,-226.00
1693.33,-1526.00
1694.48,2.00
1695.63,-468.00
1696.78,-5.00
1697.93,-183.00
1699.07,69.00
1700.22,-42.00
1701.37,128.00
1702.51,-83.00
1703.66,673.00
1704.80,-491.00
1705.95,563.00
1707.09,-257.00
1708.24,468.00
1709.38,-177.00
1710.52,-570.00
1711.67,266.00
1712.81,-52.00
1713.95,-492.00
1715.09,277.00
1716.23,-402.00
1717.37,483.00
1718.51,233.00
1719.65,-1053.00
1720.79,17.00
1721.93,7.00
1723.07,-242.00
1724.20,-1074.00
1725.34,179.00
1726.48,681.00
1727.62,523.00
1728.75,-541.00
1729.89,-587.00
1731.02,-290.00
1732.16,-421.00
1733.29,-172.00
1734.43,858.00
1735.56,-583.00
1736.69,491.00
1737.82,6.00
1738.96,-140.00
1740.09,307.00
1741.22,-398.00
1742.35,169.00
1743.48,-198.00
1744.61,197.00
1745.74,-267.00
1746.87,-40.00
1748.00,-230.00
1749.13,-449.00
1750.25,-90.00
1751.38,296.00
1752.51,100.00
1753.64,138.00
1754.76,217.00
1755.89,-29.00
1757.01,-96.00
1758.14,61.00
1759.26,-589.00
1760.39,-66.00
1761.51,-87.00
1762.63,468.00
1763.76,201.00
1764.88,-129.00
1766.00,-160.00
1767.12,-132.00
1768.24,-382.00
1769.37,435.00
1770.49,469.00
1771.61,413.00
1772.73,-68.00
1773.85,-385.00
1774.96,-47.00
1776.08,297.00
1777.20,205.00
1778.32,-116.00
1779.44,-75.00
1780.55,-305.00
1781.67,281.00
1782.78,-261.00
1783.90,-478.00
1785.01,-118.00
1786.13,-331.00
1787.24,-205.00
1788.36,163.00
1789.47,486.00
1790.58,-117.00
1791.70,233.00
1792.81,-150.00
1793.92,178.00
1795.03,470.00
1796.14,147.00
1797.26,230.00
1798.37,-108.00
1799.48,-359.00
1800.58,92.00
1801.69,850.00
1802.80,220.00
1803.91,837.00
1805.02,468.00
1806.13,-322.00
1807.23,-547.00
1808.34,368.00
1809.45,707.00
1810.55,-333.00
1811.66,159.00
1812.76,25.00
1813.87,368.00
1814.97,-258.00
1816.08,166.00
1817.18,-195.00
1818.28,924.00
1819.39,-113.00
1820.49,161.00
1821.59,-206.00
1822.69,-353.00
1823.79,429.00
1824.90,-971.00
1826.00,-411.00
1827.10,-124.00
1828.20,415.00
1829.30,132.00
1830.39,-2.00
1831.49,259.00
1832.59,1.00
1833.69,-103.00
1834.79,337.00
1835.88,328.00
1836.98,565.00
1838.08,-50.00
1839.17,-205.00
1840.27,56.00
1841.36,-340.00
1842.46,-564.00
1843.55,-68.00
1844.65,196.00
1845.74,-145.00
1846.83,367.00
1847.93,-136.00
1849.02,1025.00
1850.11,-299.00
1851.20,-206.00
1852.30,345.00
1853.39,-370.00
1854.48,-551.00
1855.57,49.00
1856.66,-19.00
1857.75,266.00
1858.84,-361.00
1859.93,-329.00
1861.01,-91.00
1862.10,37.00
1863.19,469.00
1864.28,160.00
1865.37,-165.00
1866.45,-445.00
1867.54,93.00
1868.62,-620.00
1869.71,194.00
1870.79,-738.00
1871.88,260.00
1872.96,13.00
1874.05,-228.00
1875.13,525.00
1876.22,871.00
1877.30,-33.00
1878.38,-95.00
1879.46,-311.00
1880.55,101.00
1881.63,-48.00
1882.71,79.00
1883.79,171.00
1884.87,657.00
1885.95,-607.00
1887.03,-135.00
1888.11,104.00
1889.19,-214.00
1890.27,815.00
1891.35,173.00
1892.42,137.00
1893.50,-203.00
1894.58,-47.00
1895.66,776.00
1896.73,-188.00
1897.81,-157.00
1898.89,125.00
1899.96,222.00
1901.04,-505.00
1902.11,-108.00
1903.19,-272.00
1904.26,23.00
1905.33,-213.00
1906.41,555.00
1907.48,-235.00
1908.55,-87.00
1909.63,202.00
1910.70,224.00
1911.77,346.00
1912.84,29.00
1913.91,-815.00
1914.98,-56.00
1916.05,-465.00
1917.12,129.00
1918.19,432.00
1919.26,63.00
1920.33,-11.00
1921.40,131.00
1922.47,422.00
1923.54,-321.00
1924.60,455.00
1925.67,-391.00
1926.74,-300.00
1927.80,-200.00
1928.87,-51.00
1929.94,96.00
1931.00,147.00
1932.07,477.00
1933.13,121.00
1934.20,-514.00
1935.26,407.00
1936.33,268.00
1937.39,329.00
1938.45,26.00
1939.52,-310.00
1940.58,-317.00
1941.64,405.00
1942.70,-742.00
1943.76,-416.00
1944.83,566.00
1945.89,472.00
1946.95,195.00
1948.01,-390.00
1949.07,402.00
1950.13,-42.00
1951.19,-461.00
1952.25,-665.00
1953.30,-284.00
1954.36,-924.00
1955.42,-262.00
1956.48,-169.00
1957.54,246.00
1958.59,-62.00
1959.65,84.00
1960.71,111.00
1961.76,656.00
1962.82,409.00
1963.87,-50.00
1964.93,-470.00
1965.98,-523.00
1967.04,223.00
1968.09,-167.00
1969.15,369.00
1970.20,-595.00
