ENLIGHTEN Version,1.6.8
Measurement ID,20190528-111101-357372-WP-00357
Serial Number,WP-00357
Label,BMSB
Integration Time,1
Timestamp,2019-05-28 11:11:01.357372
Note,
Temperature,-99
CCD C0,801.1829833984375
CCD C1,0.12474799901247025
CCD C2,-2.2862799596623518e-05
CCD C3,4.907460215974879e-09
CCD Offset,0
CCD Gain,1.9
Laser Wavelength,785.0
Laser Enable,False
Laser Power,100.0
Laser Temperature,-99
Pixel Count,1952

Wavenumber,Processed
257.31,0.00
259.25,0.00
261.19,0.00
263.13,-908.00
265.07,-172.00
267.01,62.00
268.95,327.00
270.88,-811.00
272.82,-726.00
274.75,230.00
276.68,183.00
278.61,-520.00
280.54,-327.00
282.46,167.00
284.39,-833.00
286.31,-138.00
288.24,-544.00
290.16,-994.00
292.08,-340.00
294.00,-356.00
295.92,-732.00
297.83,-479.00
299.75,-606.00
301.66,-529.00
303.58,-65.00
305.49,-490.00
307.40,-310.00
309.31,-311.00
311.22,-613.00
313.12,-599.00
315.03,-1110.00
316.93,-666.00
318.83,-527.00
320.73,-426.00
322.63,174.00
324.53,-671.00
326.43,-22.00
328.33,-110.00
330.22,267.00
332.12,38.00
334.01,-693.00
335.90,-722.00
337.79,-374.00
339.68,57.00
341.57,-423.00
343.45,-578.00
345.34,-408.00
347.22,-352.00
349.10,-29.00
350.98,441.00
352.86,-469.00
354.74,-301.00
356.62,-608.00
358.50,71.00
360.37,-143.00
362.24,196.00
364.12,187.00
365.99,406.00
367.86,-166.00
369.73,379.00
371.59,-365.00
373.46,-200.00
375.33,-660.00
377.19,238.00
379.05,634.00
380.91,801.00
382.77,3.00
384.63,135.00
386.49,-152.00
388.35,761.00
390.20,163.00
392.06,430.00
393.91,803.00
395.76,240.00
397.61,1168.00
399.46,662.00
401.31,461.00
403.15,584.00
405.00,132.00
406.84,709.00
408.69,983.00
410.53,164.00
412.37,-59.00
414.21,137.00
416.05,584.00
417.88,49.00
419.72,457.00
421.55,-211.00
423.39,-3.00
425.22,-137.00
427.05,-197.00
428.88,72.00
430.71,-526.00
432.54,421.00
434.36,-176.00
436.19,-161.00
438.01,434.00
439.83,570.00
441.65,140.00
443.48,-192.00
445.29,111.00
447.11,659.00
448.93,257.00
450.74,823.00
452.56,965.00
454.37,959.00
456.18,552.00
457.99,431.00
459.80,1006.00
461.61,375.00
463.42,678.00
465.23,460.00
467.03,136.00
468.83,630.00
470.64,483.00
472.44,494.00
474.24,465.00
476.04,1032.00
477.84,639.00
479.63,-12.00
481.43,-616.00
483.22,208.00
485.02,-344.00
486.81,449.00
488.60,-113.00
490.39,262.00
492.18,337.00
493.96,508.00
495.75,477.00
497.54,375.00
499.32,92.00
501.10,-12.00
502.88,316.00
504.67,311.00
506.45,615.00
508.22,420.00
510.00,299.00
511.78,-158.00
513.55,180.00
515.33,13.00
517.10,519.00
518.87,707.00
520.64,653.00
522.41,1115.00
524.18,558.00
525.94,-94.00
527.71,-697.00
529.47,-867.00
531.24,1130.00
533.00,847.00
534.76,180.00
536.52,-43.00
538.28,21.00
540.04,215.00
541.80,240.00
543.55,-265.00
545.31,426.00
547.06,344.00
548.81,213.00
550.56,103.00
552.31,812.00
554.06,200.00
555.81,657.00
557.56,105.00
559.30,1477.00
561.05,823.00
562.79,677.00
564.53,1255.00
566.28,492.00
568.02,378.00
569.75,980.00
571.49,455.00
573.23,117.00
574.97,622.00
576.70,729.00
578.43,175.00
580.17,389.00
581.90,378.00
583.63,195.00
585.36,-95.00
587.09,-273.00
588.81,752.00
590.54,-543.00
592.26,588.00
593.99,587.00
595.71,-49.00
597.43,246.00
599.15,-155.00
600.87,-317.00
602.59,602.00
604.31,305.00
606.02,-341.00
607.74,-503.00
609.45,876.00
611.17,122.00
612.88,313.00
614.59,253.00
616.30,47.00
618.01,332.00
619.71,412.00
621.42,497.00
623.13,605.00
624.83,6.00
626.53,134.00
628.24,393.00
629.94,479.00
631.64,1163.00
633.34,973.00
635.04,1281.00
636.73,1113.00
638.43,1921.00
640.12,2466.00
641.82,2200.00
643.51,2614.00
645.20,2988.00
646.89,1287.00
648.58,1799.00
650.27,139.00
651.96,1334.00
653.65,342.00
655.33,1300.00
657.02,1318.00
658.70,-798.00
660.38,12.00
662.06,109.00
663.74,468.00
665.42,-33.00
667.10,213.00
668.78,446.00
670.45,484.00
672.13,414.00
673.80,-4.00
675.48,478.00
677.15,-162.00
678.82,-4.00
680.49,-40.00
682.16,131.00
683.83,-205.00
685.49,222.00
687.16,105.00
688.82,154.00
690.49,-301.00
692.15,97.00
693.81,679.00
695.47,56.00
697.13,79.00
698.79,552.00
700.45,-430.00
702.11,45.00
703.76,249.00
705.42,-387.00
707.07,28.00
708.72,438.00
710.37,-509.00
712.02,450.00
713.67,684.00
715.32,-460.00
716.97,227.00
718.62,426.00
720.26,-8.00
721.91,735.00
723.55,220.00
725.19,1054.00
726.84,775.00
728.48,690.00
730.12,414.00
731.75,245.00
733.39,-28.00
735.03,-86.00
736.66,421.00
738.30,300.00
739.93,461.00
741.57,-106.00
743.20,278.00
744.83,265.00
746.46,400.00
748.09,-20.00
749.71,775.00
751.34,943.00
752.97,504.00
754.59,825.00
756.22,1028.00
757.84,842.00
759.46,875.00
761.08,645.00
762.70,303.00
764.32,1246.00
765.94,285.00
767.56,859.00
769.17,815.00
770.79,186.00
772.40,1128.00
774.01,1307.00
775.63,1309.00
777.24,1310.00
778.85,885.00
780.46,1325.00
782.07,748.00
783.67,959.00
785.28,792.00
786.88,1367.00
788.49,1293.00
790.09,451.00
791.70,549.00
793.30,151.00
794.90,670.00
796.50,522.00
798.10,292.00
799.69,961.00
801.29,767.00
802.89,820.00
804.48,-28.00
806.08,-7.00
807.67,554.00
809.26,256.00
810.85,-695.00
812.44,-26.00
814.03,765.00
815.62,375.00
817.21,438.00
818.79,25.00
820.38,1118.00
821.96,652.00
823.55,740.00
825.13,75.00
826.71,807.00
828.29,766.00
829.87,587.00
831.45,725.00
833.03,1891.00
834.61,1532.00
836.18,1954.00
837.76,1912.00
839.33,2048.00
840.91,2490.00
842.48,3000.00
844.05,1997.00
845.62,3034.00
847.19,2594.00
848.76,2163.00
850.33,3655.00
851.90,3164.00
853.46,2656.00
855.03,3527.00
856.59,2133.00
858.15,2133.00
859.72,2108.00
861.28,985.00
862.84,1746.00
864.40,2118.00
865.96,1452.00
867.52,1558.00
869.07,409.00
870.63,1059.00
872.18,645.00
873.74,2139.00
875.29,1073.00
876.84,1133.00
878.40,1760.00
879.95,799.00
881.50,1267.00
883.04,1108.00
884.59,1304.00
886.14,1235.00
887.69,1724.00
889.23,1078.00
890.78,1601.00
892.32,719.00
893.86,278.00
895.40,782.00
896.94,14.00
898.48,1027.00
900.02,431.00
901.56,745.00
903.10,-700.00
904.63,771.00
906.17,516.00
907.70,332.00
909.24,759.00
910.77,54.00
912.30,165.00
913.83,-223.00
915.36,92.00
916.89,347.00
918.42,636.00
919.95,537.00
921.48,155.00
923.00,-21.00
924.53,-221.00
926.05,346.00
927.57,-212.00
929.10,-316.00
930.62,791.00
932.14,179.00
933.66,68.00
935.18,136.00
936.70,389.00
938.21,414.00
939.73,266.00
941.24,1019.00
942.76,860.00
944.27,1004.00
945.79,1186.00
947.30,1725.00
948.81,1417.00
950.32,1713.00
951.83,1761.00
953.34,2489.00
954.84,1894.00
956.35,2181.00
957.86,2416.00
959.36,2281.00
960.87,1853.00
962.37,2332.00
963.87,2335.00
965.37,2183.00
966.88,2273.00
968.38,3540.00
969.87,3138.00
971.37,2506.00
972.87,3594.00
974.37,3358.00
975.86,3940.00
977.36,3554.00
978.85,3930.00
980.35,3682.00
981.84,3000.00
983.33,3004.00
984.82,2533.00
986.31,2187.00
987.80,1465.00
989.29,2721.00
990.77,488.00
992.26,1728.00
993.75,700.00
995.23,893.00
996.72,876.00
998.20,808.00
999.68,1809.00
1001.16,637.00
1002.64,490.00
1004.12,1068.00
1005.60,-491.00
1007.08,138.00
1008.56,707.00
1010.04,13.00
1011.51,545.00
1012.99,798.00
1014.46,-135.00
1015.93,-11.00
1017.41,314.00
1018.88,729.00
1020.35,92.00
1021.82,570.00
1023.29,479.00
1024.76,552.00
1026.23,372.00
1027.69,561.00
1029.16,568.00
1030.62,1188.00
1032.09,290.00
1033.55,774.00
1035.02,1046.00
1036.48,1416.00
1037.94,1494.00
1039.40,2190.00
1040.86,1505.00
1042.32,1717.00
1043.78,2010.00
1045.23,2298.00
1046.69,1800.00
1048.15,2609.00
1049.60,2347.00
1051.05,3240.00
1052.51,2833.00
1053.96,3298.00
1055.41,2340.00
1056.86,2313.00
1058.31,2978.00
1059.76,2216.00
1061.21,2730.00
1062.66,2468.00
1064.10,1440.00
1065.55,1808.00
1067.00,2145.00
1068.44,1231.00
1069.88,1172.00
1071.33,1755.00
1072.77,1908.00
1074.21,522.00
1075.65,1659.00
1077.09,1268.00
1078.53,582.00
1079.97,1562.00
1081.41,516.00
1082.84,285.00
1084.28,522.00
1085.71,1058.00
1087.15,373.00
1088.58,972.00
1090.02,1063.00
1091.45,1608.00
1092.88,1015.00
1094.31,683.00
1095.74,1367.00
1097.17,2150.00
1098.60,2188.00
1100.02,2323.00
1101.45,2962.00
1102.88,2520.00
1104.30,1697.00
1105.73,2243.00
1107.15,1070.00
1108.57,2533.00
1109.99,1960.00
1111.42,2149.00
1112.84,2305.00
1114.26,2276.00
1115.68,1539.00
1117.09,1824.00
1118.51,1547.00
1119.93,1951.00
1121.34,1456.00
1122.76,1119.00
1124.17,796.00
1125.59,687.00
1127.00,938.00
1128.41,1784.00
1129.82,1385.00
1131.24,1035.00
1132.65,844.00
1134.05,1250.00
1135.46,293.00
1136.87,861.00
1138.28,715.00
1139.68,699.00
1141.09,1775.00
1142.50,1177.00
1143.90,1370.00
1145.30,655.00
1146.71,1258.00
1148.11,1220.00
1149.51,801.00
1150.91,2024.00
1152.31,1905.00
1153.71,1970.00
1155.11,2315.00
1156.50,2137.00
1157.90,2780.00
1159.30,3926.00
1160.69,4084.00
1162.08,4369.00
1163.48,5708.00
1164.87,7927.00
1166.26,9262.00
1167.66,14160.00
1169.05,14599.00
1170.44,19039.00
1171.83,20354.00
1173.21,24514.00
1174.60,25445.00
1175.99,27817.00
1177.38,27213.00
1178.76,29821.00
1180.15,31738.00
1181.53,31627.00
1182.92,32488.00
1184.30,33576.00
1185.68,33837.00
1187.06,32585.00
1188.44,31678.00
1189.82,31974.00
1191.20,31114.00
1192.58,30303.00
1193.96,28263.00
1195.34,27214.00
1196.71,26560.00
1198.09,23661.00
1199.46,25098.00
1200.84,21283.00
1202.21,22074.00
1203.58,21685.00
1204.96,18078.00
1206.33,18981.00
1207.70,18680.00
1209.07,18854.00
1210.44,18904.00
1211.81,18918.00
1213.17,16184.00
1214.54,16189.00
1215.91,14179.00
1217.27,14856.00
1218.64,12761.00
1220.00,11868.00
1221.37,10246.00
1222.73,9046.00
1224.09,8683.00
1225.45,7275.00
1226.82,5848.00
1228.18,4379.00
1229.54,4467.00
1230.89,4002.00
1232.25,4440.00
1233.61,3459.00
1234.97,2582.00
1236.32,2669.00
1237.68,2213.00
1239.03,1841.00
1240.39,1745.00
1241.74,2061.00
1243.09,1401.00
1244.45,1579.00
1245.80,1846.00
1247.15,968.00
1248.50,1359.00
1249.85,1138.00
1251.20,1282.00
1252.54,501.00
1253.89,690.00
1255.24,757.00
1256.58,1907.00
1257.93,1456.00
1259.27,381.00
1260.62,1274.00
1261.96,1018.00
1263.30,618.00
1264.64,1023.00
1265.98,1221.00
1267.33,1438.00
1268.67,884.00
1270.00,718.00
1271.34,1198.00
1272.68,1115.00
1274.02,1603.00
1275.35,1118.00
1276.69,1642.00
1278.03,1351.00
1279.36,1742.00
1280.69,2067.00
1282.03,2715.00
1283.36,3314.00
1284.69,2337.00
1286.02,2928.00
1287.35,3222.00
1288.68,3152.00
1290.01,3575.00
1291.34,3154.00
1292.67,3614.00
1294.00,4518.00
1295.32,3802.00
1296.65,4070.00
1297.97,5018.00
1299.30,3865.00
1300.62,4636.00
1301.94,5511.00
1303.27,5000.00
1304.59,4489.00
1305.91,5590.00
1307.23,5849.00
1308.55,6109.00
1309.87,5385.00
1311.19,6334.00
1312.51,5976.00
1313.82,7113.00
1315.14,7304.00
1316.46,7621.00
1317.77,6226.00
1319.09,6110.00
1320.40,6865.00
1321.72,7366.00
1323.03,6711.00
1324.34,8436.00
1325.65,7785.00
1326.96,8188.00
1328.27,7525.00
1329.58,6605.00
1330.89,7367.00
1332.20,7090.00
1333.51,6482.00
1334.82,6320.00
1336.12,5647.00
1337.43,5282.00
1338.73,5920.00
1340.04,5613.00
1341.34,4997.00
1342.65,4435.00
1343.95,5130.00
1345.25,3912.00
1346.55,4871.00
1347.85,3728.00
1349.15,3791.00
1350.45,3530.00
1351.75,2257.00
1353.05,2594.00
1354.35,2075.00
1355.65,2152.00
1356.94,1353.00
1358.24,1334.00
1359.53,1019.00
1360.83,1707.00
1362.12,1220.00
1363.42,2119.00
1364.71,1268.00
1366.00,449.00
1367.29,1700.00
1368.58,343.00
1369.87,578.00
1371.16,321.00
1372.45,1268.00
1373.74,454.00
1375.03,1049.00
1376.32,1178.00
1377.60,622.00
1378.89,763.00
1380.17,579.00
1381.46,933.00
1382.74,1045.00
1384.03,1002.00
1385.31,666.00
1386.59,1348.00
1387.87,1187.00
1389.15,535.00
1390.43,966.00
1391.71,429.00
1392.99,1031.00
1394.27,956.00
1395.55,1045.00
1396.83,846.00
1398.11,-22.00
1399.38,157.00
1400.66,707.00
1401.93,945.00
1403.21,807.00
1404.48,534.00
1405.75,1239.00
1407.03,568.00
1408.30,770.00
1409.57,206.00
1410.84,342.00
1412.11,473.00
1413.38,838.00
1414.65,671.00
1415.92,240.00
1417.19,563.00
1418.46,-256.00
1419.72,188.00
1420.99,746.00
1422.25,546.00
1423.52,1055.00
1424.78,1538.00
1426.05,639.00
1427.31,825.00
1428.57,650.00
1429.84,8.00
1431.10,742.00
1432.36,6.00
1433.62,765.00
1434.88,617.00
1436.14,2128.00
1437.40,158.00
1438.65,1273.00
1439.91,1446.00
1441.17,1356.00
1442.43,1241.00
1443.68,1071.00
1444.94,1476.00
1446.19,1770.00
1447.44,1409.00
1448.70,1819.00
1449.95,1247.00
1451.20,1663.00
1452.46,1582.00
1453.71,2370.00
1454.96,2535.00
1456.21,1808.00
1457.46,2699.00
1458.71,1028.00
1459.95,1842.00
1461.20,1895.00
1462.45,2769.00
1463.70,1739.00
1464.94,2015.00
1466.19,1884.00
1467.43,1987.00
1468.68,1306.00
1469.92,1692.00
1471.16,1922.00
1472.41,1394.00
1473.65,1153.00
1474.89,1488.00
1476.13,1800.00
1477.37,1956.00
1478.61,2072.00
1479.85,2126.00
1481.09,2181.00
1482.33,852.00
1483.57,1695.00
1484.80,1353.00
1486.04,749.00
1487.28,1484.00
1488.51,1794.00
1489.75,156.00
1490.98,1237.00
1492.21,814.00
1493.45,1363.00
1494.68,1198.00
1495.91,1746.00
1497.14,888.00
1498.37,1533.00
1499.61,1853.00
1500.84,1681.00
1502.06,970.00
1503.29,1867.00
1504.52,2168.00
1505.75,1947.00
1506.98,1050.00
1508.20,783.00
1509.43,1398.00
1510.66,909.00
1511.88,1640.00
1513.11,1195.00
1514.33,913.00
1515.55,1531.00
1516.78,1119.00
1518.00,1586.00
1519.22,1229.00
1520.44,1411.00
1521.66,968.00
1522.88,1099.00
1524.10,1251.00
1525.32,1430.00
1526.54,1162.00
1527.76,2282.00
1528.98,1372.00
1530.19,1285.00
1531.41,2308.00
1532.63,1813.00
1533.84,2700.00
1535.06,1731.00
1536.27,2303.00
1537.48,2881.00
1538.70,3500.00
1539.91,2778.00
1541.12,3559.00
1542.33,3186.00
1543.55,4170.00
1544.76,4298.00
1545.97,4311.00
1547.18,5043.00
1548.39,5355.00
1549.59,5214.00
1550.80,4585.00
1552.01,5274.00
1553.22,5476.00
1554.42,5487.00
1555.63,6980.00
1556.84,6293.00
1558.04,5449.00
1559.24,6390.00
1560.45,6264.00
1561.65,6951.00
1562.86,7612.00
1564.06,7964.00
1565.26,7941.00
1566.46,7941.00
1567.66,8831.00
1568.86,8801.00
1570.06,10718.00
1571.26,11356.00
1572.46,12873.00
1573.66,14416.00
1574.86,17728.00
1576.05,19775.00
1577.25,21105.00
1578.45,24900.00
1579.64,29271.00
1580.84,30392.00
1582.03,34792.00
1583.23,36714.00
1584.42,40746.00
1585.61,42472.00
1586.81,45268.00
1588.00,45603.00
1589.19,46535.00
1590.38,47014.00
1591.57,48690.00
1592.76,49264.00
1593.95,48041.00
1595.14,46861.00
1596.33,49082.00
1597.52,47962.00
1598.71,49471.00
1599.90,46210.00
1601.08,46678.00
1602.27,43731.00
1603.45,44888.00
1604.64,43841.00
1605.83,42658.00
1607.01,39795.00
1608.19,37890.00
1609.38,35764.00
1610.56,34243.00
1611.74,33572.00
1612.92,32917.00
1614.11,31107.00
1615.29,30802.00
1616.47,29539.00
1617.65,28769.00
1618.83,27691.00
1620.01,26415.00
1621.18,26222.00
1622.36,26471.00
1623.54,25073.00
1624.72,24924.00
1625.89,23176.00
1627.07,22696.00
1628.25,22455.00
1629.42,22123.00
1630.60,22172.00
1631.77,20833.00
1632.94,21144.00
1634.12,20101.00
1635.29,17223.00
1636.46,17022.00
1637.63,16661.00
1638.80,16354.00
1639.98,15572.00
1641.15,15168.00
1642.32,13870.00
1643.49,14562.00
1644.65,11388.00
1645.82,10625.00
1646.99,9884.00
1648.16,8829.00
1649.33,8234.00
1650.49,8220.00
1651.66,6906.00
1652.82,6350.00
1653.99,5191.00
1655.15,4828.00
1656.32,4571.00
1657.48,4572.00
1658.65,3949.00
1659.81,3736.00
1660.97,3416.00
1662.13,3522.00
1663.29,1783.00
1664.45,1736.00
1665.62,2170.00
1666.78,2393.00
1667.94,1949.00
1669.09,1619.00
1670.25,849.00
1671.41,604.00
1672.57,1275.00
1673.73,1196.00
1674.88,744.00
1676.04,522.00
1677.20,1872.00
1678.35,1130.00
1679.51,660.00
1680.66,1081.00
1681.82,1038.00
1682.97,920.00
1684.12,363.00
1685.27,484.00
1686.43,526.00
1687.58,1136.00
1688.73,468.00
1689.88,595.00
1691.03,1693.00
1692.18,838.00
1693.33,-368.00
1694.48,456.00
1695.63,277.00
1696.78,947.00
1697.93,999.00
1699.07,481.00
1700.22,463.00
1701.37,645.00
1702.51,999.00
1703.66,1146.00
1704.80,322.00
1705.95,903.00
1707.09,706.00
1708.24,915.00
1709.38,766.00
1710.52,-401.00
1711.67,502.00
1712.81,310.00
1713.95,61.00
1715.09,929.00
1716.23,278.00
1717.37,99.00
1718.51,432.00
1719.65,-728.00
1720.79,693.00
1721.93,404.00
1723.07,847.00
1724.20,-327.00
1725.34,870.00
1726.48,229.00
1727.62,857.00
1728.75,336.00
1729.89,191.00
1731.02,473.00
1732.16,-147.00
1733.29,441.00
1734.43,380.00
1735.56,533.00
1736.69,584.00
1737.82,644.00
1738.96,1087.00
1740.09,591.00
1741.22,1129.00
1742.35,95.00
1743.48,58.00
1744.61,472.00
1745.74,181.00
1746.87,226.00
1748.00,423.00
1749.13,472.00
1750.25,378.00
1751.38,59.00
1752.51,96.00
1753.64,770.00
1754.76,89.00
1755.89,370.00
1757.01,750.00
1758.14,627.00
1759.26,233.00
1760.39,757.00
1761.51,208.00
1762.63,731.00
1763.76,454.00
1764.88,298.00
1766.00,384.00
1767.12,1284.00
1768.24,502.00
1769.37,735.00
1770.49,733.00
1771.61,1367.00
1772.73,828.00
1773.85,898.00
1774.96,135.00
1776.08,898.00
1777.20,578.00
1778.32,657.00
1779.44,1022.00
1780.55,-13.00
1781.67,470.00
1782.78,410.00
1783.90,-170.00
1785.01,665.00
1786.13,-393.00
1787.24,361.00
1788.36,205.00
1789.47,271.00
1790.58,-42.00
1791.70,425.00
1792.81,474.00
1793.92,96.00
1795.03,559.00
1796.14,471.00
1797.26,72.00
1798.37,-52.00
1799.48,-4.00
1800.58,200.00
1801.69,-58.00
1802.80,486.00
1803.91,168.00
1805.02,713.00
1806.13,284.00
1807.23,-541.00
1808.34,-128.00
1809.45,241.00
1810.55,474.00
1811.66,183.00
1812.76,637.00
1813.87,133.00
1814.97,104.00
1816.08,-83.00
1817.18,199.00
1818.28,502.00
1819.39,87.00
1820.49,59.00
1821.59,399.00
1822.69,99.00
1823.79,-138.00
1824.90,-444.00
1826.00,-547.00
1827.10,-162.00
1828.20,-121.00
1829.30,-63.00
1830.39,201.00
1831.49,861.00
1832.59,-200.00
1833.69,33.00
1834.79,-353.00
1835.88,533.00
1836.98,165.00
1838.08,344.00
1839.17,222.00
1840.27,284.00
1841.36,-347.00
1842.46,-202.00
1843.55,-381.00
1844.65,414.00
1845.74,-208.00
1846.83,259.00
1847.93,-284.00
1849.02,659.00
1850.11,-368.00
1851.20,-370.00
1852.30,518.00
1853.39,299.00
1854.48,-677.00
1855.57,160.00
1856.66,-134.00
1857.75,311.00
1858.84,-47.00
1859.93,93.00
1861.01,48.00
1862.10,16.00
1863.19,15.00
1864.28,255.00
1865.37,217.00
1866.45,-76.00
1867.54,141.00
1868.62,-64.00
1869.71,395.00
1870.79,-482.00
1871.88,473.00
1872.96,-315.00
1874.05,-285.00
1875.13,-154.00
1876.22,720.00
1877.30,347.00
1878.38,-37.00
1879.46,188.00
1880.55,152.00
1881.63,-538.00
1882.71,64.00
1883.79,82.00
1884.87,176.00
1885.95,-168.00
1887.03,-193.00
1888.11,269.00
1889.19,-628.00
1890.27,569.00
1891.35,413.00
1892.42,-55.00
1893.50,302.00
1894.58,300.00
1895.66,-181.00
1896.73,-122.00
1897.81,272.00
1898.89,-538.00
1899.96,83.00
1901.04,-404.00
1902.11,-140.00
1903.19,-135.00
1904.26,779.00
1905.33,-257.00
1906.41,878.00
1907.48,401.00
1908.55,-852.00
1909.63,-366.00
1910.70,92.00
1911.77,-218.00
1912.84,-528.00
1913.91,-275.00
1914.98,-180.00
1916.05,-1043.00
1917.12,106.00
1918.19,205.00
1919.26,-74.00
1920.33,-132.00
1921.40,-304.00
1922.47,-45.00
1923.54,-469.00
1924.60,748.00
1925.67,-444.00
1926.74,-22.00
1927.80,-369.00
1928.87,-510.00
1929.94,-329.00
1931.00,139.00
1932.07,243.00
1933.13,128.00
1934.20,-87.00
1935.26,169.00
1936.33,-6.00
1937.39,305.00
1938.45,220.00
1939.52,-24.00
1940.58,-730.00
1941.64,846.00
1942.70,34.00
1943.76,-113.00
1944.83,420.00
1945.89,-123.00
1946.95,-176.00
1948.01,105.00
