ENLIGHTEN Version,1.6.8
Measurement ID,20190528-102130-671042-SIGD-0003
Serial Number,SIGD-0003
Label,Coconut Oil
Integration Time,100
Timestamp,2019-05-28 10:21:30.671042
Note,
Temperature,-99
CCD C0,613.8702392578125
CCD C1,0.10380711406469345
CCD C2,-1.9689399778144434e-05
CCD C3,3.600099995892947e-09
CCD Offset,0
CCD Gain,1.9
Laser Wavelength,633.0
Laser Enable,True
Laser Power,100.0
Laser Temperature,-99
Pixel Count,1952

Wavenumber,Processed
-492.30,0.00
-489.55,0.00
-486.79,0.00
-484.04,378.00
-481.30,728.00
-478.55,-114.00
-475.81,346.00
-473.06,832.00
-470.32,-206.00
-467.59,185.00
-464.85,453.00
-462.12,-70.00
-459.38,521.00
-456.65,588.00
-453.93,447.00
-451.20,419.00
-448.48,289.00
-445.75,1207.00
-443.03,927.00
-440.31,639.00
-437.60,324.00
-434.88,158.00
-432.17,-166.00
-429.46,852.00
-426.75,663.00
-424.04,756.00
-421.34,778.00
-418.64,-131.00
-415.93,825.00
-413.24,374.00
-410.54,58.00
-407.84,-165.00
-405.15,540.00
-402.46,736.00
-399.77,-80.00
-397.08,423.00
-394.39,197.00
-391.71,855.00
-389.03,617.00
-386.35,748.00
-383.67,225.00
-380.99,337.00
-378.32,249.00
-375.65,349.00
-372.98,-325.00
-370.31,44.00
-367.64,375.00
-364.98,456.00
-362.31,305.00
-359.65,-356.00
-356.99,481.00
-354.33,170.00
-351.68,-26.00
-349.03,-213.00
-346.37,-77.00
-343.72,254.00
-341.08,144.00
-338.43,246.00
-335.78,766.00
-333.14,394.00
-330.50,-90.00
-327.86,168.00
-325.23,-45.00
-322.59,670.00
-319.96,-381.00
-317.33,301.00
-314.70,167.00
-312.07,778.00
-309.44,-121.00
-306.82,274.00
-304.20,605.00
-301.57,462.00
-298.96,-124.00
-296.34,1.00
-293.72,495.00
-291.11,-94.00
-288.50,640.00
-285.89,-337.00
-283.28,4.00
-280.68,724.00
-278.07,500.00
-275.47,226.00
-272.87,-260.00
-270.27,241.00
-267.68,328.00
-265.08,243.00
-262.49,182.00
-259.90,245.00
-257.31,-427.00
-254.72,105.00
-252.13,23.00
-249.55,-363.00
-246.97,728.00
-244.39,103.00
-241.81,246.00
-239.23,199.00
-236.65,597.00
-234.08,480.00
-231.51,180.00
-228.94,316.00
-226.37,338.00
-223.81,374.00
-221.24,44.00
-218.68,304.00
-216.12,-341.00
-213.56,-132.00
-211.00,721.00
-208.45,408.00
-205.89,-174.00
-203.34,691.00
-200.79,553.00
-198.24,308.00
-195.69,222.00
-193.15,919.00
-190.61,-401.00
-188.06,365.00
-185.52,-92.00
-182.99,5.00
-180.45,367.00
-177.92,516.00
-175.38,-212.00
-172.85,633.00
-170.32,-35.00
-167.79,51.00
-165.27,498.00
-162.74,830.00
-160.22,238.00
-157.70,826.00
-155.18,331.00
-152.66,409.00
-150.15,354.00
-147.64,-82.00
-145.12,933.00
-142.61,485.00
-140.10,402.00
-137.60,499.00
-135.09,528.00
-132.59,292.00
-130.09,609.00
-127.59,-117.00
-125.09,1245.00
-122.59,362.00
-120.10,605.00
-117.60,434.00
-115.11,786.00
-112.62,315.00
-110.13,292.00
-107.65,668.00
-105.16,224.00
-102.68,-50.00
-100.20,25.00
-97.72,351.00
-95.24,266.00
-92.76,616.00
-90.29,7.00
-87.82,1364.00
-85.35,310.00
-82.88,1013.00
-80.41,578.00
-77.94,1205.00
-75.48,731.00
-73.01,1148.00
-70.55,-10.00
-68.09,454.00
-65.64,542.00
-63.18,432.00
-60.73,404.00
-58.27,-22.00
-55.82,443.00
-53.37,916.00
-50.92,-304.00
-48.48,1464.00
-46.03,614.00
-43.59,348.00
-41.15,408.00
-38.71,655.00
-36.27,164.00
-33.83,661.00
-31.40,-682.00
-28.97,134.00
-26.53,332.00
-24.10,-335.00
-21.68,-110.00
-19.25,480.00
-16.82,494.00
-14.40,-260.00
-11.98,409.00
-9.56,277.00
-7.14,579.00
-4.72,921.00
-2.31,427.00
0.10,104.00
2.52,854.00
4.93,337.00
7.34,696.00
9.74,276.00
12.15,527.00
14.55,-217.00
16.95,581.00
19.36,675.00
21.75,723.00
24.15,347.00
26.55,1016.00
28.94,539.00
31.34,760.00
33.73,456.00
36.12,558.00
38.50,138.00
40.89,589.00
43.27,367.00
45.66,490.00
48.04,313.00
50.42,-180.00
52.80,338.00
55.17,879.00
57.55,522.00
59.92,443.00
62.30,821.00
64.67,327.00
67.04,-6.00
69.40,491.00
71.77,479.00
74.13,35.00
76.50,578.00
78.86,131.00
81.22,558.00
83.57,447.00
85.93,-100.00
88.29,428.00
90.64,-63.00
92.99,37.00
95.34,314.00
97.69,342.00
100.04,551.00
102.38,-467.00
104.73,511.00
107.07,511.00
109.41,661.00
111.75,726.00
114.09,814.00
116.42,-180.00
118.76,515.00
121.09,330.00
123.42,66.00
125.75,171.00
128.08,687.00
130.41,648.00
132.74,720.00
135.06,-179.00
137.38,602.00
139.70,673.00
142.02,1242.00
144.34,1007.00
146.66,290.00
148.97,216.00
151.29,877.00
153.60,999.00
155.91,656.00
158.22,81.00
160.52,587.00
162.83,391.00
165.13,437.00
167.44,443.00
169.74,244.00
172.04,252.00
174.34,669.00
176.63,387.00
178.93,-434.00
181.22,734.00
183.52,-82.00
185.81,-185.00
188.10,778.00
190.38,282.00
192.67,782.00
194.96,433.00
197.24,478.00
199.52,82.00
201.80,999.00
204.08,709.00
206.36,510.00
208.63,573.00
210.91,488.00
213.18,955.00
215.45,868.00
217.72,959.00
219.99,486.00
222.26,95.00
224.53,609.00
226.79,484.00
229.05,435.00
231.31,-91.00
233.57,-57.00
235.83,845.00
238.09,748.00
240.35,513.00
242.60,822.00
244.85,-507.00
247.10,793.00
249.35,964.00
251.60,235.00
253.85,476.00
256.09,451.00
258.34,430.00
260.58,318.00
262.82,-48.00
265.06,561.00
267.30,435.00
269.54,224.00
271.77,-168.00
274.01,320.00
276.24,142.00
278.47,958.00
280.70,1034.00
282.93,893.00
285.15,632.00
287.38,116.00
289.60,-26.00
291.83,839.00
294.05,698.00
296.27,1059.00
298.48,687.00
300.70,1177.00
302.92,1397.00
305.13,896.00
307.34,1331.00
309.56,1723.00
311.77,1926.00
313.97,2692.00
316.18,2775.00
318.39,2746.00
320.59,3281.00
322.79,4143.00
324.99,5402.00
327.19,7754.00
329.39,8396.00
331.59,8789.00
333.79,10545.00
335.98,11634.00
338.17,14850.00
340.37,15451.00
342.56,18750.00
344.74,20959.00
346.93,20458.00
349.12,23222.00
351.30,25479.00
353.49,26360.00
355.67,27557.00
357.85,28435.00
360.03,29584.00
362.21,30156.00
364.38,32477.00
366.56,31268.00
368.73,30984.00
370.90,31851.00
373.08,33437.00
375.24,33119.00
377.41,33383.00
379.58,31906.00
381.75,32805.00
383.91,32623.00
386.07,33473.00
388.23,33728.00
390.39,34434.00
392.55,34098.00
394.71,34722.00
396.87,34189.00
399.02,35821.00
401.17,35406.00
403.33,35655.00
405.48,36292.00
407.63,33802.00
409.77,36167.00
411.92,35649.00
414.07,35046.00
416.21,35151.00
418.35,35446.00
420.49,34547.00
422.63,36919.00
424.77,36448.00
426.91,35101.00
429.05,35099.00
431.18,35517.00
433.31,37040.00
435.45,34390.00
437.58,35430.00
439.71,36397.00
441.83,35371.00
443.96,35434.00
446.09,35808.00
448.21,36274.00
450.33,33944.00
452.45,36474.00
454.57,37014.00
456.69,35385.00
458.81,35714.00
460.93,35133.00
463.04,35861.00
465.16,34891.00
467.27,38779.00
469.38,36731.00
471.49,35833.00
473.60,36334.00
475.70,36410.00
477.81,36281.00
479.91,36796.00
482.02,36152.00
484.12,34964.00
486.22,36494.00
488.32,36948.00
490.42,37011.00
492.51,36874.00
494.61,35742.00
496.70,35743.00
498.80,35657.00
500.89,35904.00
502.98,37050.00
505.07,36226.00
507.15,35753.00
509.24,35737.00
511.33,35107.00
513.41,37830.00
515.49,36462.00
517.57,37686.00
519.65,37188.00
521.73,35262.00
523.81,34720.00
525.89,34485.00
527.96,36415.00
530.03,37366.00
532.11,35918.00
534.18,34497.00
536.25,34619.00
538.32,35268.00
540.38,36300.00
542.45,33693.00
544.51,34994.00
546.58,34395.00
548.64,35258.00
550.70,35408.00
552.76,33613.00
554.82,35128.00
556.88,36792.00
558.93,35893.00
560.99,35245.00
563.04,34812.00
565.09,35014.00
567.14,35128.00
569.19,35507.00
571.24,37032.00
573.29,36482.00
575.34,36503.00
577.38,36162.00
579.42,34223.00
581.47,34740.00
583.51,33966.00
585.55,34830.00
587.59,34819.00
589.62,36407.00
591.66,36384.00
593.70,35764.00
595.73,36023.00
597.76,35985.00
599.79,36976.00
601.82,37128.00
603.85,36686.00
605.88,35415.00
607.91,35293.00
609.93,37399.00
611.96,35015.00
613.98,36726.00
616.00,34520.00
618.02,36937.00
620.04,35465.00
622.06,36879.00
624.08,38349.00
626.09,36504.00
628.11,36678.00
630.12,37487.00
632.13,34106.00
634.14,36721.00
636.15,35271.00
638.16,36592.00
640.17,36749.00
642.17,36559.00
644.18,36367.00
646.18,35990.00
648.18,37623.00
650.18,33785.00
652.18,37877.00
654.18,35721.00
656.18,35696.00
658.18,36322.00
660.17,36423.00
662.17,35711.00
664.16,36362.00
666.15,37097.00
668.14,34928.00
670.13,35953.00
672.12,36047.00
674.11,37318.00
676.09,37812.00
678.08,36366.00
680.06,35545.00
682.04,36590.00
684.02,37756.00
686.00,36904.00
687.98,34880.00
689.96,37462.00
691.94,36415.00
693.91,38489.00
695.89,34716.00
697.86,36601.00
699.83,38609.00
701.80,37554.00
703.77,38578.00
705.74,37094.00
707.71,34934.00
709.67,37076.00
711.64,37815.00
713.60,38732.00
715.56,37449.00
717.52,38523.00
719.48,38009.00
721.44,38776.00
723.40,36895.00
725.36,36844.00
727.31,37157.00
729.27,37975.00
731.22,37611.00
733.17,38409.00
735.13,38114.00
737.08,39399.00
739.02,36375.00
740.97,37267.00
742.92,36657.00
744.86,37992.00
746.81,37677.00
748.75,37006.00
750.69,38098.00
752.63,36338.00
754.57,38380.00
756.51,38728.00
758.45,35793.00
760.39,39314.00
762.32,36575.00
764.26,37648.00
766.19,36386.00
768.12,37840.00
770.05,37978.00
771.98,36784.00
773.91,38127.00
775.84,39092.00
777.76,35397.00
779.69,36221.00
781.61,36577.00
783.54,35649.00
785.46,36027.00
787.38,36431.00
789.30,37070.00
791.22,37377.00
793.13,38314.00
795.05,36569.00
796.97,35747.00
798.88,35302.00
800.79,35539.00
802.70,38366.00
804.62,35221.00
806.52,35744.00
808.43,38638.00
810.34,37242.00
812.25,37304.00
814.15,35784.00
816.06,37228.00
817.96,36511.00
819.86,37028.00
821.76,38769.00
823.66,36421.00
825.56,37685.00
827.46,36464.00
829.36,39209.00
831.25,36952.00
833.15,37648.00
835.04,37229.00
836.93,39410.00
838.82,37408.00
840.71,36068.00
842.60,37783.00
844.49,37965.00
846.38,36699.00
848.26,38612.00
850.15,39076.00
852.03,37419.00
853.91,38003.00
855.80,37124.00
857.68,36595.00
859.56,38885.00
861.43,38079.00
863.31,39206.00
865.19,38668.00
867.06,39108.00
868.94,40201.00
870.81,39501.00
872.68,38831.00
874.55,39601.00
876.42,38295.00
878.29,39702.00
880.16,37907.00
882.03,40187.00
883.89,39572.00
885.76,40848.00
887.62,38911.00
889.48,38420.00
891.35,38682.00
893.21,39211.00
895.07,40500.00
896.92,38384.00
898.78,40298.00
900.64,40369.00
902.49,39426.00
904.35,38527.00
906.20,37470.00
908.05,36224.00
909.90,37988.00
911.75,38229.00
913.60,41513.00
915.45,39555.00
917.30,39131.00
919.14,38869.00
920.99,38933.00
922.83,38773.00
924.68,37407.00
926.52,36922.00
928.36,38849.00
930.20,39941.00
932.04,38928.00
933.87,39614.00
935.71,39234.00
937.55,39501.00
939.38,37398.00
941.21,36621.00
943.05,39343.00
944.88,37729.00
946.71,39019.00
948.54,38766.00
950.37,37032.00
952.20,36777.00
954.02,38012.00
955.85,38014.00
957.67,37944.00
959.50,38233.00
961.32,36971.00
963.14,38574.00
964.96,37497.00
966.78,37363.00
968.60,37665.00
970.42,35994.00
972.23,36943.00
974.05,37319.00
975.86,36607.00
977.68,36096.00
979.49,36393.00
981.30,36659.00
983.11,38337.00
984.92,36099.00
986.73,38510.00
988.54,39598.00
990.34,36245.00
992.15,36388.00
993.95,36647.00
995.76,37408.00
997.56,38581.00
999.36,37401.00
1001.16,37246.00
1002.96,37623.00
1004.76,37144.00
1006.56,37639.00
1008.35,36348.00
1010.15,36800.00
1011.94,35391.00
1013.74,37897.00
1015.53,37602.00
1017.32,35610.00
1019.11,37881.00
1020.90,37532.00
1022.69,36273.00
1024.48,37457.00
1026.27,39505.00
1028.05,36849.00
1029.84,37275.00
1031.62,37959.00
1033.41,36116.00
1035.19,38743.00
1036.97,37813.00
1038.75,39395.00
1040.53,38703.00
1042.31,36138.00
1044.08,37261.00
1045.86,38187.00
1047.64,38611.00
1049.41,36224.00
1051.18,36130.00
1052.96,37069.00
1054.73,38290.00
1056.50,37515.00
1058.27,38705.00
1060.04,39854.00
1061.81,38565.00
1063.57,38608.00
1065.34,39036.00
1067.10,39492.00
1068.87,37587.00
1070.63,39624.00
1072.39,39660.00
1074.15,38960.00
1075.91,38941.00
1077.67,37758.00
1079.43,39097.00
1081.19,39020.00
1082.95,38646.00
1084.70,37533.00
1086.46,35760.00
1088.21,37406.00
1089.96,37139.00
1091.71,38327.00
1093.47,37410.00
1095.22,37728.00
1096.96,37317.00
1098.71,36924.00
1100.46,34933.00
1102.21,36695.00
1103.95,35618.00
1105.70,35822.00
1107.44,34430.00
1109.18,37341.00
1110.92,35470.00
1112.66,35292.00
1114.40,36604.00
1116.14,38614.00
1117.88,38498.00
1119.62,37054.00
1121.35,37481.00
1123.09,36309.00
1124.82,38543.00
1126.56,35756.00
1128.29,36184.00
1130.02,37877.00
1131.75,36495.00
1133.48,34283.00
1135.21,37100.00
1136.94,33437.00
1138.67,35583.00
1140.39,32745.00
1142.12,36489.00
1143.84,36003.00
1145.57,34040.00
1147.29,35374.00
1149.01,35667.00
1150.73,34354.00
1152.45,34961.00
1154.17,34978.00
1155.89,34691.00
1157.60,35152.00
1159.32,33545.00
1161.04,33129.00
1162.75,34347.00
1164.46,36667.00
1166.18,35415.00
1167.89,35590.00
1169.60,32880.00
1171.31,34341.00
1173.02,34112.00
1174.73,35173.00
1176.43,34930.00
1178.14,34643.00
1179.85,34627.00
1181.55,34864.00
1183.25,35098.00
1184.96,35797.00
1186.66,34590.00
1188.36,34763.00
1190.06,33767.00
1191.76,33795.00
1193.46,36735.00
1195.16,35473.00
1196.85,35348.00
1198.55,34946.00
1200.24,34027.00
1201.94,34257.00
1203.63,35025.00
1205.32,34205.00
1207.02,34963.00
1208.71,34640.00
1210.40,34690.00
1212.09,36278.00
1213.77,35005.00
1215.46,34330.00
1217.15,33950.00
1218.83,33727.00
1220.52,35824.00
1222.20,34884.00
1223.88,34213.00
1225.57,34642.00
1227.25,33096.00
1228.93,35716.00
1230.61,34167.00
1232.29,35319.00
1233.96,35210.00
1235.64,35594.00
1237.32,36471.00
1238.99,35432.00
1240.67,36830.00
1242.34,34129.00
1244.01,33448.00
1245.69,34007.00
1247.36,34239.00
1249.03,37238.00
1250.70,32978.00
1252.36,34054.00
1254.03,35644.00
1255.70,34521.00
1257.37,36419.00
1259.03,35731.00
1260.69,35681.00
1262.36,35188.00
1264.02,34655.00
1265.68,36314.00
1267.34,34985.00
1269.00,35504.00
1270.66,34382.00
1272.32,36138.00
1273.98,33800.00
1275.64,34417.00
1277.29,34755.00
1278.95,36307.00
1280.60,35033.00
1282.25,35206.00
1283.91,36023.00
1285.56,35804.00
1287.21,37098.00
1288.86,35208.00
1290.51,34994.00
1292.16,36245.00
1293.81,36166.00
1295.45,35947.00
1297.10,37195.00
1298.74,36450.00
1300.39,38312.00
1302.03,37481.00
1303.68,38365.00
1305.32,38998.00
1306.96,36893.00
1308.60,37581.00
1310.24,37232.00
1311.88,38706.00
1313.52,38675.00
1315.15,37172.00
1316.79,38755.00
1318.42,37472.00
1320.06,36746.00
1321.69,36957.00
1323.33,36613.00
1324.96,35392.00
1326.59,33875.00
1328.22,35293.00
1329.85,34143.00
1331.48,33877.00
1333.11,35082.00
1334.74,33371.00
1336.36,31734.00
1337.99,33876.00
1339.61,33896.00
1341.24,33601.00
1342.86,34520.00
1344.48,33119.00
1346.11,34401.00
1347.73,34472.00
1349.35,33808.00
1350.97,33933.00
1352.58,32245.00
1354.20,33586.00
1355.82,32346.00
1357.44,33499.00
1359.05,32657.00
1360.67,31322.00
1362.28,32396.00
1363.89,33338.00
1365.51,34128.00
1367.12,32412.00
1368.73,33578.00
1370.34,33454.00
1371.95,32823.00
1373.56,32973.00
1375.17,32464.00
1376.77,32221.00
1378.38,31962.00
1379.98,33162.00
1381.59,32049.00
1383.19,32078.00
1384.80,32377.00
1386.40,31910.00
1388.00,32988.00
1389.60,32919.00
1391.20,31548.00
1392.80,33180.00
1394.40,32946.00
1396.00,32092.00
1397.59,31917.00
1399.19,33541.00
1400.78,31550.00
1402.38,34197.00
1403.97,33233.00
1405.57,31290.00
1407.16,34605.00
1408.75,34154.00
1410.34,34344.00
1411.93,33451.00
1413.52,33482.00
1415.11,33477.00
1416.70,31976.00
1418.28,34060.00
1419.87,33149.00
1421.46,35332.00
1423.04,34704.00
1424.63,35108.00
1426.21,36562.00
1427.79,36195.00
1429.37,35937.00
1430.95,38160.00
1432.54,38929.00
1434.11,40113.00
1435.69,42095.00
1437.27,38182.00
1438.85,41899.00
1440.43,39278.00
1442.00,43295.00
1443.58,41080.00
1445.15,42633.00
1446.72,40425.00
1448.30,42444.00
1449.87,44515.00
1451.44,42671.00
1453.01,42937.00
1454.58,43535.00
1456.15,43061.00
1457.72,42549.00
1459.29,40863.00
1460.85,40470.00
1462.42,42245.00
1463.99,41583.00
1465.55,40441.00
1467.12,39321.00
1468.68,40750.00
1470.24,40405.00
1471.80,38349.00
1473.36,40760.00
1474.93,40394.00
1476.49,38718.00
1478.04,36332.00
1479.60,36937.00
1481.16,37529.00
1482.72,37435.00
1484.27,35597.00
1485.83,34466.00
1487.38,34797.00
1488.94,36368.00
1490.49,32956.00
1492.04,35370.00
1493.60,33115.00
1495.15,33035.00
1496.70,32432.00
1498.25,33857.00
1499.80,33916.00
1501.34,34469.00
1502.89,34056.00
1504.44,33927.00
1505.98,32745.00
1507.53,33896.00
1509.07,33535.00
1510.62,33276.00
1512.16,32256.00
1513.70,32913.00
1515.25,32662.00
1516.79,32490.00
1518.33,30701.00
1519.87,32074.00
1521.41,32432.00
1522.95,32462.00
1524.48,32129.00
1526.02,30996.00
1527.56,31536.00
1529.09,30750.00
1530.63,30710.00
1532.16,31597.00
1533.69,31840.00
1535.23,30490.00
1536.76,33018.00
1538.29,32352.00
1539.82,30085.00
1541.35,30909.00
1542.88,30817.00
1544.41,30269.00
1545.94,31031.00
1547.47,30145.00
1548.99,29677.00
1550.52,30805.00
1552.04,30418.00
1553.57,31128.00
1555.09,30743.00
1556.61,30370.00
1558.14,30703.00
1559.66,30788.00
1561.18,30232.00
1562.70,30193.00
1564.22,30242.00
1565.74,30162.00
1567.26,28273.00
1568.78,28548.00
1570.29,29576.00
1571.81,29957.00
1573.32,31429.00
1574.84,29969.00
1576.35,29510.00
1577.87,28979.00
1579.38,28724.00
1580.89,30747.00
1582.41,30197.00
1583.92,29462.00
1585.43,30861.00
1586.94,28796.00
1588.45,28850.00
1589.95,28222.00
1591.46,29824.00
1592.97,28497.00
1594.47,30959.00
1595.98,28897.00
1597.49,30820.00
1598.99,28425.00
1600.49,28912.00
1602.00,28505.00
1603.50,29882.00
1605.00,29403.00
1606.50,29070.00
1608.00,29131.00
1609.50,28569.00
1611.00,29471.00
1612.50,28679.00
1614.00,28607.00
1615.49,31572.00
1616.99,28952.00
1618.49,29432.00
1619.98,29759.00
1621.48,29852.00
1622.97,28899.00
1624.46,29673.00
1625.96,29379.00
1627.45,29683.00
1628.94,27076.00
1630.43,29042.00
1631.92,29209.00
1633.41,28117.00
1634.90,27695.00
1636.39,28720.00
1637.87,27825.00
1639.36,28526.00
1640.85,29272.00
1642.33,28936.00
1643.82,28984.00
1645.30,30613.00
1646.78,29080.00
1648.27,27940.00
1649.75,29095.00
1651.23,29173.00
1652.71,28958.00
1654.19,27548.00
1655.67,29539.00
1657.15,28783.00
1658.63,29275.00
1660.11,29338.00
1661.58,30205.00
1663.06,32153.00
1664.54,28941.00
1666.01,30304.00
1667.49,29344.00
1668.96,29610.00
1670.43,28627.00
1671.91,29364.00
1673.38,29686.00
1674.85,30968.00
1676.32,30127.00
1677.79,30457.00
1679.26,29961.00
1680.73,28792.00
1682.20,30579.00
1683.67,30381.00
1685.14,28138.00
1686.60,28108.00
1688.07,29085.00
1689.53,29291.00
1691.00,28811.00
1692.46,29931.00
1693.93,28940.00
1695.39,28902.00
1696.85,28851.00
1698.31,28862.00
1699.77,29378.00
1701.23,31343.00
1702.69,28842.00
1704.15,29761.00
1705.61,30364.00
1707.07,30560.00
1708.53,29631.00
1709.98,30474.00
1711.44,29876.00
1712.90,29498.00
1714.35,28015.00
1715.81,30374.00
1717.26,29573.00
1718.71,28797.00
1720.16,28499.00
1721.62,27380.00
1723.07,29743.00
1724.52,29425.00
1725.97,28795.00
1727.42,30527.00
1728.87,28732.00
1730.32,30044.00
1731.76,30530.00
1733.21,28577.00
1734.66,28625.00
1736.10,29038.00
1737.55,30406.00
1738.99,31446.00
1740.44,29693.00
1741.88,29918.00
1743.32,30244.00
1744.77,28876.00
1746.21,29140.00
1747.65,29600.00
1749.09,30369.00
1750.53,30793.00
1751.97,29224.00
1753.41,29313.00
1754.85,30677.00
1756.29,30157.00
1757.72,28478.00
1759.16,27825.00
1760.60,31110.00
1762.03,29575.00
1763.47,29446.00
1764.90,29060.00
1766.33,29141.00
1767.77,28701.00
