ENLIGHTEN Version,1.6.8
Measurement ID,20190528-102552-900417-SIGD-0003
Serial Number,SIGD-0003
Label,Coconut Oil
Integration Time,50
Timestamp,2019-05-28 10:25:52.900417
Note,
Temperature,-99
CCD C0,613.8702392578125
CCD C1,0.10380711406469345
CCD C2,-1.9689399778144434e-05
CCD C3,3.600099995892947e-09
CCD Offset,0
CCD Gain,1.9
Laser Wavelength,633.0
Laser Enable,True
Laser Power,100.0
Laser Temperature,-99
Pixel Count,1952

Wavenumber,Processed
-492.30,0.00
-489.55,0.00
-486.79,0.00
-484.04,215.00
-481.30,-31.00
-478.55,275.00
-475.81,296.00
-473.06,491.00
-470.32,-444.00
-467.59,-902.00
-464.85,136.00
-462.12,57.00
-459.38,-533.00
-456.65,-385.00
-453.93,389.00
-451.20,-79.00
-448.48,-431.00
-445.75,-287.00
-443.03,403.00
-440.31,312.00
-437.60,52.00
-434.88,323.00
-432.17,-100.00
-429.46,160.00
-426.75,-371.00
-424.04,-221.00
-421.34,-71.00
-418.64,-48.00
-415.93,201.00
-413.24,193.00
-410.54,-463.00
-407.84,788.00
-405.15,-137.00
-402.46,1.00
-399.77,-154.00
-397.08,-125.00
-394.39,111.00
-391.71,41.00
-389.03,388.00
-386.35,463.00
-383.67,12.00
-380.99,225.00
-378.32,-145.00
-375.65,367.00
-372.98,-108.00
-370.31,310.00
-367.64,323.00
-364.98,152.00
-362.31,936.00
-359.65,-452.00
-356.99,104.00
-354.33,351.00
-351.68,-104.00
-349.03,183.00
-346.37,-415.00
-343.72,572.00
-341.08,234.00
-338.43,222.00
-335.78,601.00
-333.14,438.00
-330.50,125.00
-327.86,273.00
-325.23,-67.00
-322.59,439.00
-319.96,262.00
-317.33,185.00
-314.70,443.00
-312.07,-199.00
-309.44,221.00
-306.82,154.00
-304.20,-75.00
-301.57,80.00
-298.96,82.00
-296.34,120.00
-293.72,-348.00
-291.11,288.00
-288.50,309.00
-285.89,-293.00
-283.28,397.00
-280.68,316.00
-278.07,-822.00
-275.47,70.00
-272.87,180.00
-270.27,-50.00
-267.68,54.00
-265.08,-153.00
-262.49,275.00
-259.90,-308.00
-257.31,-423.00
-254.72,-101.00
-252.13,-633.00
-249.55,-33.00
-246.97,266.00
-244.39,496.00
-241.81,-223.00
-239.23,43.00
-236.65,-443.00
-234.08,382.00
-231.51,-206.00
-228.94,-359.00
-226.37,30.00
-223.81,-967.00
-221.24,-520.00
-218.68,-720.00
-216.12,458.00
-213.56,-87.00
-211.00,113.00
-208.45,-35.00
-205.89,119.00
-203.34,-296.00
-200.79,-723.00
-198.24,-71.00
-195.69,870.00
-193.15,-193.00
-190.61,-160.00
-188.06,163.00
-185.52,-4.00
-182.99,-32.00
-180.45,182.00
-177.92,17.00
-175.38,46.00
-172.85,-235.00
-170.32,354.00
-167.79,-146.00
-165.27,249.00
-162.74,-40.00
-160.22,441.00
-157.70,-378.00
-155.18,195.00
-152.66,-224.00
-150.15,454.00
-147.64,-143.00
-145.12,-496.00
-142.61,-184.00
-140.10,-155.00
-137.60,-357.00
-135.09,-62.00
-132.59,400.00
-130.09,161.00
-127.59,-243.00
-125.09,40.00
-122.59,-157.00
-120.10,60.00
-117.60,191.00
-115.11,-485.00
-112.62,-32.00
-110.13,309.00
-107.65,-289.00
-105.16,-25.00
-102.68,-535.00
-100.20,-61.00
-97.72,-607.00
-95.24,291.00
-92.76,-376.00
-90.29,160.00
-87.82,572.00
-85.35,-60.00
-82.88,158.00
-80.41,94.00
-77.94,396.00
-75.48,374.00
-73.01,253.00
-70.55,312.00
-68.09,-182.00
-65.64,20.00
-63.18,572.00
-60.73,-196.00
-58.27,158.00
-55.82,-139.00
-53.37,-141.00
-50.92,219.00
-48.48,-123.00
-46.03,-340.00
-43.59,374.00
-41.15,-307.00
-38.71,-17.00
-36.27,180.00
-33.83,-373.00
-31.40,180.00
-28.97,133.00
-26.53,27.00
-24.10,279.00
-21.68,-551.00
-19.25,-71.00
-16.82,535.00
-14.40,109.00
-11.98,170.00
-9.56,531.00
-7.14,-17.00
-4.72,-137.00
-2.31,428.00
0.10,-42.00
2.52,44.00
4.93,-51.00
7.34,191.00
9.74,-180.00
12.15,-657.00
14.55,83.00
16.95,56.00
19.36,-17.00
21.75,500.00
24.15,-58.00
26.55,58.00
28.94,105.00
31.34,289.00
33.73,621.00
36.12,-291.00
38.50,56.00
40.89,244.00
43.27,-225.00
45.66,-167.00
48.04,72.00
50.42,14.00
52.80,478.00
55.17,333.00
57.55,281.00
59.92,449.00
62.30,-159.00
64.67,372.00
67.04,-530.00
69.40,383.00
71.77,1185.00
74.13,-177.00
76.50,-67.00
78.86,144.00
81.22,-192.00
83.57,192.00
85.93,205.00
88.29,62.00
90.64,-236.00
92.99,233.00
95.34,665.00
97.69,488.00
100.04,194.00
102.38,-386.00
104.73,55.00
107.07,351.00
109.41,618.00
111.75,432.00
114.09,145.00
116.42,85.00
118.76,-508.00
121.09,299.00
123.42,-220.00
125.75,135.00
128.08,-259.00
130.41,140.00
132.74,166.00
135.06,-273.00
137.38,8.00
139.70,493.00
142.02,-73.00
144.34,127.00
146.66,113.00
148.97,-459.00
151.29,-344.00
153.60,197.00
155.91,151.00
158.22,286.00
160.52,-454.00
162.83,511.00
165.13,-70.00
167.44,-148.00
169.74,-14.00
172.04,413.00
174.34,-167.00
176.63,518.00
178.93,598.00
181.22,175.00
183.52,143.00
185.81,-692.00
188.10,-188.00
190.38,-58.00
192.67,389.00
194.96,-210.00
197.24,11.00
199.52,240.00
201.80,-24.00
204.08,79.00
206.36,-718.00
208.63,-88.00
210.91,-409.00
213.18,56.00
215.45,53.00
217.72,-96.00
219.99,718.00
222.26,308.00
224.53,-177.00
226.79,-440.00
229.05,-378.00
231.31,346.00
233.57,364.00
235.83,46.00
238.09,380.00
240.35,-136.00
242.60,-438.00
244.85,159.00
247.10,-226.00
249.35,-73.00
251.60,114.00
253.85,239.00
256.09,614.00
258.34,58.00
260.58,-42.00
262.82,-106.00
265.06,-188.00
267.30,192.00
269.54,17.00
271.77,1035.00
274.01,-38.00
276.24,382.00
278.47,-205.00
280.70,158.00
282.93,-58.00
285.15,536.00
287.38,937.00
289.60,-575.00
291.83,87.00
294.05,-340.00
296.27,-453.00
298.48,1075.00
300.70,-199.00
302.92,602.00
305.13,260.00
307.34,817.00
309.56,759.00
311.77,155.00
313.97,592.00
316.18,1381.00
318.39,1448.00
320.59,1609.00
322.79,1927.00
324.99,1780.00
327.19,2778.00
329.39,2889.00
331.59,3558.00
333.79,4512.00
335.98,4432.00
338.17,6356.00
340.37,6164.00
342.56,7477.00
344.74,7969.00
346.93,8328.00
349.12,7773.00
351.30,9551.00
353.49,10581.00
355.67,11130.00
357.85,10776.00
360.03,11691.00
362.21,12169.00
364.38,12559.00
366.56,11648.00
368.73,12282.00
370.90,11705.00
373.08,11935.00
375.24,12738.00
377.41,13120.00
379.58,13735.00
381.75,12913.00
383.91,12478.00
386.07,12332.00
388.23,12143.00
390.39,12775.00
392.55,13322.00
394.71,13129.00
396.87,12668.00
399.02,13721.00
401.17,13801.00
403.33,13611.00
405.48,13164.00
407.63,12831.00
409.77,14435.00
411.92,12600.00
414.07,13887.00
416.21,13383.00
418.35,13291.00
420.49,13675.00
422.63,13832.00
424.77,13896.00
426.91,12115.00
429.05,14210.00
431.18,14024.00
433.31,12833.00
435.45,13385.00
437.58,13394.00
439.71,13017.00
441.83,14250.00
443.96,13663.00
446.09,13126.00
448.21,13623.00
450.33,13615.00
452.45,14275.00
454.57,13112.00
456.69,14068.00
458.81,12213.00
460.93,13540.00
463.04,13704.00
465.16,13871.00
467.27,14232.00
469.38,12493.00
471.49,13518.00
473.60,13995.00
475.70,14246.00
477.81,12420.00
479.91,14064.00
482.02,14431.00
484.12,14283.00
486.22,13998.00
488.32,14845.00
490.42,13212.00
492.51,12714.00
494.61,14514.00
496.70,13472.00
498.80,14380.00
500.89,13445.00
502.98,14672.00
505.07,13307.00
507.15,13677.00
509.24,12621.00
511.33,13319.00
513.41,12994.00
515.49,12853.00
517.57,14381.00
519.65,13804.00
521.73,13689.00
523.81,14532.00
525.89,13698.00
527.96,13026.00
530.03,13083.00
532.11,13115.00
534.18,13867.00
536.25,12568.00
538.32,13069.00
540.38,14198.00
542.45,13689.00
544.51,13286.00
546.58,12981.00
548.64,13159.00
550.70,12099.00
552.76,13063.00
554.82,13979.00
556.88,12581.00
558.93,14513.00
560.99,13020.00
563.04,13880.00
565.09,13314.00
567.14,12085.00
569.19,13326.00
571.24,13685.00
573.29,13879.00
575.34,12964.00
577.38,13572.00
579.42,13488.00
581.47,13687.00
583.51,13182.00
585.55,12333.00
587.59,13392.00
589.62,13949.00
591.66,14017.00
593.70,13393.00
595.73,13234.00
597.76,14039.00
599.79,14210.00
601.82,12925.00
603.85,12946.00
605.88,13223.00
607.91,13544.00
609.93,13154.00
611.96,12935.00
613.98,13557.00
616.00,12425.00
618.02,12504.00
620.04,13109.00
622.06,13696.00
624.08,12995.00
626.09,13436.00
628.11,13242.00
630.12,13407.00
632.13,12262.00
634.14,14410.00
636.15,13284.00
638.16,15449.00
640.17,13304.00
642.17,13178.00
644.18,13887.00
646.18,12960.00
648.18,13311.00
650.18,14224.00
652.18,14254.00
654.18,13703.00
656.18,14316.00
658.18,14257.00
660.17,13867.00
662.17,14280.00
664.16,13259.00
666.15,13544.00
668.14,13944.00
670.13,14945.00
672.12,13913.00
674.11,14189.00
676.09,13613.00
678.08,13664.00
680.06,14785.00
682.04,13696.00
684.02,14493.00
686.00,13969.00
687.98,12234.00
689.96,14068.00
691.94,13669.00
693.91,13882.00
695.89,13686.00
697.86,13488.00
699.83,14340.00
701.80,13690.00
703.77,14437.00
705.74,13961.00
707.71,14125.00
709.67,12957.00
711.64,14854.00
713.60,14278.00
715.56,14150.00
717.52,13001.00
719.48,13241.00
721.44,12936.00
723.40,13999.00
725.36,13765.00
727.31,14766.00
729.27,14266.00
731.22,13065.00
733.17,15196.00
735.13,13650.00
737.08,13650.00
739.02,13510.00
740.97,13601.00
742.92,14959.00
744.86,14196.00
746.81,14887.00
748.75,13963.00
750.69,14421.00
752.63,14084.00
754.57,13990.00
756.51,14859.00
758.45,14176.00
760.39,13649.00
762.32,13659.00
764.26,14526.00
766.19,14649.00
768.12,14600.00
770.05,13849.00
771.98,13731.00
773.91,14525.00
775.84,14870.00
777.76,15010.00
779.69,14473.00
781.61,13589.00
783.54,13852.00
785.46,12648.00
787.38,13416.00
789.30,13557.00
791.22,13971.00
793.13,13870.00
795.05,14306.00
796.97,14916.00
798.88,14958.00
800.79,13957.00
802.70,13260.00
804.62,14386.00
806.52,13497.00
808.43,14456.00
810.34,13467.00
812.25,15469.00
814.15,14561.00
816.06,14837.00
817.96,13695.00
819.86,14638.00
821.76,15706.00
823.66,14144.00
825.56,13124.00
827.46,13707.00
829.36,15265.00
831.25,14365.00
833.15,14492.00
835.04,13647.00
836.93,14753.00
838.82,14725.00
840.71,14601.00
842.60,13441.00
844.49,14671.00
846.38,15120.00
848.26,15022.00
850.15,14511.00
852.03,13887.00
853.91,14292.00
855.80,15077.00
857.68,15619.00
859.56,14323.00
861.43,14068.00
863.31,13548.00
865.19,14245.00
867.06,14582.00
868.94,13578.00
870.81,14570.00
872.68,14309.00
874.55,14456.00
876.42,14531.00
878.29,14665.00
880.16,16506.00
882.03,15008.00
883.89,14476.00
885.76,15111.00
887.62,15173.00
889.48,13427.00
891.35,15241.00
893.21,14767.00
895.07,14900.00
896.92,14908.00
898.78,16157.00
900.64,15943.00
902.49,14801.00
904.35,14202.00
906.20,15580.00
908.05,14731.00
909.90,14055.00
911.75,15205.00
913.60,14934.00
915.45,16252.00
917.30,13968.00
919.14,15622.00
920.99,13898.00
922.83,14487.00
924.68,16003.00
926.52,14183.00
928.36,15116.00
930.20,14372.00
932.04,14116.00
933.87,15531.00
935.71,14561.00
937.55,14889.00
939.38,14022.00
941.21,13788.00
943.05,13544.00
944.88,14693.00
946.71,15486.00
948.54,14689.00
950.37,13994.00
952.20,12941.00
954.02,13592.00
955.85,14397.00
957.67,12276.00
959.50,15013.00
961.32,14768.00
963.14,15090.00
964.96,13438.00
966.78,15021.00
968.60,13260.00
970.42,14529.00
972.23,13184.00
974.05,14870.00
975.86,13633.00
977.68,13540.00
979.49,13819.00
981.30,13963.00
983.11,14763.00
984.92,14122.00
986.73,12810.00
988.54,13539.00
990.34,13575.00
992.15,13877.00
993.95,14130.00
995.76,13252.00
997.56,13258.00
999.36,14431.00
1001.16,14291.00
1002.96,13638.00
1004.76,12931.00
1006.56,13510.00
1008.35,14617.00
1010.15,14715.00
1011.94,13516.00
1013.74,14433.00
1015.53,13485.00
1017.32,14279.00
1019.11,14032.00
1020.90,14573.00
1022.69,13431.00
1024.48,14989.00
1026.27,14112.00
1028.05,13424.00
1029.84,13884.00
1031.62,13670.00
1033.41,13525.00
1035.19,14257.00
1036.97,13764.00
1038.75,14061.00
1040.53,14421.00
1042.31,13175.00
1044.08,14559.00
1045.86,14370.00
1047.64,14403.00
1049.41,13988.00
1051.18,14131.00
1052.96,15596.00
1054.73,14335.00
1056.50,15196.00
1058.27,13226.00
1060.04,14906.00
1061.81,14351.00
1063.57,14764.00
1065.34,14760.00
1067.10,14003.00
1068.87,14495.00
1070.63,15603.00
1072.39,15534.00
1074.15,14641.00
1075.91,14988.00
1077.67,15408.00
1079.43,15042.00
1081.19,14618.00
1082.95,14458.00
1084.70,14104.00
1086.46,13816.00
1088.21,15044.00
1089.96,14156.00
1091.71,13813.00
1093.47,14474.00
1095.22,13852.00
1096.96,13766.00
1098.71,14017.00
1100.46,13516.00
1102.21,14515.00
1103.95,14782.00
1105.70,14429.00
1107.44,13869.00
1109.18,12891.00
1110.92,13309.00
1112.66,14485.00
1114.40,13467.00
1116.14,14084.00
1117.88,13991.00
1119.62,14705.00
1121.35,13733.00
1123.09,14698.00
1124.82,12956.00
1126.56,14466.00
1128.29,12855.00
1130.02,13478.00
1131.75,12744.00
1133.48,12819.00
1135.21,13061.00
1136.94,13795.00
1138.67,13408.00
1140.39,14266.00
1142.12,12221.00
1143.84,13059.00
1145.57,13342.00
1147.29,13873.00
1149.01,14009.00
1150.73,13081.00
1152.45,13311.00
1154.17,14567.00
1155.89,12919.00
1157.60,13291.00
1159.32,14046.00
1161.04,12397.00
1162.75,12215.00
1164.46,12727.00
1166.18,13303.00
1167.89,12783.00
1169.60,14072.00
1171.31,11393.00
1173.02,12450.00
1174.73,14307.00
1176.43,12150.00
1178.14,12910.00
1179.85,11530.00
1181.55,12081.00
1183.25,13334.00
1184.96,11939.00
1186.66,12737.00
1188.36,12684.00
1190.06,13994.00
1191.76,12458.00
1193.46,14002.00
1195.16,14116.00
1196.85,12488.00
1198.55,12930.00
1200.24,13784.00
1201.94,13802.00
1203.63,11197.00
1205.32,13575.00
1207.02,12032.00
1208.71,12531.00
1210.40,13482.00
1212.09,13800.00
1213.77,12989.00
1215.46,12033.00
1217.15,14214.00
1218.83,13451.00
1220.52,13169.00
1222.20,13146.00
1223.88,12596.00
1225.57,12368.00
1227.25,13088.00
1228.93,12768.00
1230.61,14470.00
1232.29,12900.00
1233.96,12507.00
1235.64,12134.00
1237.32,13221.00
1238.99,13621.00
1240.67,14418.00
1242.34,13822.00
1244.01,13340.00
1245.69,12378.00
1247.36,13272.00
1249.03,13991.00
1250.70,12713.00
1252.36,13352.00
1254.03,13406.00
1255.70,12958.00
1257.37,12896.00
1259.03,13138.00
1260.69,12066.00
1262.36,12731.00
1264.02,13474.00
1265.68,14219.00
1267.34,12938.00
1269.00,12805.00
1270.66,13270.00
1272.32,12971.00
1273.98,13659.00
1275.64,12744.00
1277.29,12887.00
1278.95,13393.00
1280.60,13263.00
1282.25,14151.00
1283.91,14279.00
1285.56,13689.00
1287.21,12779.00
1288.86,13703.00
1290.51,13802.00
1292.16,12273.00
1293.81,14560.00
1295.45,13546.00
1297.10,14523.00
1298.74,15254.00
1300.39,13523.00
1302.03,14780.00
1303.68,14394.00
1305.32,14995.00
1306.96,13910.00
1308.60,13464.00
1310.24,15337.00
1311.88,14652.00
1313.52,14097.00
1315.15,14280.00
1316.79,13471.00
1318.42,14031.00
1320.06,14361.00
1321.69,13032.00
1323.33,13149.00
1324.96,13122.00
1326.59,13090.00
1328.22,13775.00
1329.85,12633.00
1331.48,13755.00
1333.11,13398.00
1334.74,12995.00
1336.36,12821.00
1337.99,12879.00
1339.61,11183.00
1341.24,12867.00
1342.86,13948.00
1344.48,13085.00
1346.11,12072.00
1347.73,11623.00
1349.35,12835.00
1350.97,12432.00
1352.58,13958.00
1354.20,12087.00
1355.82,12733.00
1357.44,12887.00
1359.05,12921.00
1360.67,12409.00
1362.28,12670.00
1363.89,12167.00
1365.51,12300.00
1367.12,12491.00
1368.73,12775.00
1370.34,11451.00
1371.95,12106.00
1373.56,12645.00
1375.17,11432.00
1376.77,12309.00
1378.38,12246.00
1379.98,11943.00
1381.59,13613.00
1383.19,11602.00
1384.80,11934.00
1386.40,13857.00
1388.00,12592.00
1389.60,12818.00
1391.20,11773.00
1392.80,12502.00
1394.40,12165.00
1396.00,12949.00
1397.59,13142.00
1399.19,12492.00
1400.78,12024.00
1402.38,12948.00
1403.97,12614.00
1405.57,11634.00
1407.16,11512.00
1408.75,13362.00
1410.34,13562.00
1411.93,12566.00
1413.52,12060.00
1415.11,12501.00
1416.70,12930.00
1418.28,13384.00
1419.87,13458.00
1421.46,13588.00
1423.04,13630.00
1424.63,11554.00
1426.21,13622.00
1427.79,15114.00
1429.37,15113.00
1430.95,14281.00
1432.54,13889.00
1434.11,14978.00
1435.69,14124.00
1437.27,15020.00
1438.85,15303.00
1440.43,15754.00
1442.00,14512.00
1443.58,16188.00
1445.15,16690.00
1446.72,16733.00
1448.30,15423.00
1449.87,16257.00
1451.44,18102.00
1453.01,16662.00
1454.58,17284.00
1456.15,17360.00
1457.72,16243.00
1459.29,17482.00
1460.85,16425.00
1462.42,16566.00
1463.99,16472.00
1465.55,16635.00
1467.12,15861.00
1468.68,15488.00
1470.24,13743.00
1471.80,15505.00
1473.36,14307.00
1474.93,14728.00
1476.49,15305.00
1478.04,14473.00
1479.60,14471.00
1481.16,13598.00
1482.72,14721.00
1484.27,13684.00
1485.83,13706.00
1487.38,12746.00
1488.94,13164.00
1490.49,12207.00
1492.04,12760.00
1493.60,12803.00
1495.15,11771.00
1496.70,12366.00
1498.25,13071.00
1499.80,13068.00
1501.34,12605.00
1502.89,11648.00
1504.44,12579.00
1505.98,11949.00
1507.53,12806.00
1509.07,11192.00
1510.62,12366.00
1512.16,12458.00
1513.70,11470.00
1515.25,11759.00
1516.79,12264.00
1518.33,11494.00
1519.87,12747.00
1521.41,12035.00
1522.95,13085.00
1524.48,12977.00
1526.02,11469.00
1527.56,12981.00
1529.09,11430.00
1530.63,11463.00
1532.16,11667.00
1533.69,11899.00
1535.23,10926.00
1536.76,11049.00
1538.29,11729.00
1539.82,11065.00
1541.35,11055.00
1542.88,11324.00
1544.41,12348.00
1545.94,10669.00
1547.47,11809.00
1548.99,11729.00
1550.52,11390.00
1552.04,11600.00
1553.57,10863.00
1555.09,11059.00
1556.61,12034.00
1558.14,11859.00
1559.66,12195.00
1561.18,11918.00
1562.70,10020.00
1564.22,11201.00
1565.74,10840.00
1567.26,11123.00
1568.78,11994.00
1570.29,11880.00
1571.81,11625.00
1573.32,10557.00
1574.84,11376.00
1576.35,10414.00
1577.87,10870.00
1579.38,11225.00
1580.89,10969.00
1582.41,10958.00
1583.92,10353.00
1585.43,11067.00
1586.94,11504.00
1588.45,11950.00
1589.95,11332.00
1591.46,11282.00
1592.97,11334.00
1594.47,10518.00
1595.98,9715.00
1597.49,10559.00
1598.99,10082.00
1600.49,10724.00
1602.00,10969.00
1603.50,10652.00
1605.00,10735.00
1606.50,10425.00
1608.00,10598.00
1609.50,9615.00
1611.00,10167.00
1612.50,10435.00
1614.00,10786.00
1615.49,10722.00
1616.99,11397.00
1618.49,11505.00
1619.98,10436.00
1621.48,11523.00
1622.97,11411.00
1624.46,10327.00
1625.96,10490.00
1627.45,11115.00
1628.94,11355.00
1630.43,10269.00
1631.92,10209.00
1633.41,10048.00
1634.90,11106.00
1636.39,10211.00
1637.87,10915.00
1639.36,10562.00
1640.85,11059.00
1642.33,10873.00
1643.82,10899.00
1645.30,11519.00
1646.78,10219.00
1648.27,11778.00
1649.75,10695.00
1651.23,10836.00
1652.71,10807.00
1654.19,10961.00
1655.67,11147.00
1657.15,11076.00
1658.63,11524.00
1660.11,11075.00
1661.58,10282.00
1663.06,11209.00
1664.54,11102.00
1666.01,12152.00
1667.49,11290.00
1668.96,11526.00
1670.43,11473.00
1671.91,11459.00
1673.38,10093.00
1674.85,10399.00
1676.32,10428.00
1677.79,10498.00
1679.26,9923.00
1680.73,10127.00
1682.20,11115.00
1683.67,11006.00
1685.14,10307.00
1686.60,10616.00
1688.07,10999.00
1689.53,10551.00
1691.00,11057.00
1692.46,10544.00
1693.93,11313.00
1695.39,10391.00
1696.85,10216.00
1698.31,11811.00
1699.77,10826.00
1701.23,10913.00
1702.69,11450.00
1704.15,11073.00
1705.61,10251.00
1707.07,11826.00
1708.53,10509.00
1709.98,11516.00
1711.44,10295.00
1712.90,11176.00
1714.35,12091.00
1715.81,10451.00
1717.26,11429.00
1718.71,11529.00
1720.16,10253.00
1721.62,10673.00
1723.07,10833.00
1724.52,10958.00
1725.97,11117.00
1727.42,11274.00
1728.87,11153.00
1730.32,12464.00
1731.76,10573.00
1733.21,9758.00
1734.66,10690.00
1736.10,11096.00
1737.55,12312.00
1738.99,10762.00
1740.44,11573.00
1741.88,11440.00
1743.32,10362.00
1744.77,11447.00
1746.21,11616.00
1747.65,11125.00
1749.09,11549.00
1750.53,10044.00
1751.97,11089.00
1753.41,11038.00
1754.85,10720.00
1756.29,11703.00
1757.72,10226.00
1759.16,10896.00
1760.60,10514.00
1762.03,11273.00
1763.47,9927.00
1764.90,11180.00
1766.33,11405.00
