ENLIGHTEN Version,1.6.8
Measurement ID,20190528-102751-220582-SIGD-0003
Serial Number,SIGD-0003
Label,Cyclohexane
Integration Time,50
Timestamp,2019-05-28 10:27:51.220582
Note,
Temperature,-99
CCD C0,613.8702392578125
CCD C1,0.10380711406469345
CCD C2,-1.9689399778144434e-05
CCD C3,3.600099995892947e-09
CCD Offset,0
CCD Gain,1.9
Laser Wavelength,633.0
Laser Enable,True
Laser Power,100.0
Laser Temperature,-99
Pixel Count,1952

Wavenumber,Processed
-492.30,0.00
-489.55,0.00
-486.79,0.00
-484.04,800.00
-481.30,142.00
-478.55,436.00
-475.81,721.00
-473.06,827.00
-470.32,-20.00
-467.59,-555.00
-464.85,-508.00
-462.12,-394.00
-459.38,-71.00
-456.65,-387.00
-453.93,-153.00
-451.20,336.00
-448.48,-83.00
-445.75,5.00
-443.03,525.00
-440.31,-272.00
-437.60,470.00
-434.88,793.00
-432.17,-339.00
-429.46,-208.00
-426.75,138.00
-424.04,-69.00
-421.34,-185.00
-418.64,296.00
-415.93,360.00
-413.24,498.00
-410.54,-484.00
-407.84,325.00
-405.15,-379.00
-402.46,-142.00
-399.77,288.00
-397.08,333.00
-394.39,-208.00
-391.71,-325.00
-389.03,463.00
-386.35,338.00
-383.67,209.00
-380.99,-600.00
-378.32,461.00
-375.65,96.00
-372.98,-245.00
-370.31,149.00
-367.64,265.00
-364.98,159.00
-362.31,1007.00
-359.65,-170.00
-356.99,184.00
-354.33,424.00
-351.68,-299.00
-349.03,-172.00
-346.37,190.00
-343.72,427.00
-341.08,982.00
-338.43,111.00
-335.78,228.00
-333.14,366.00
-330.50,-183.00
-327.86,123.00
-325.23,-499.00
-322.59,695.00
-319.96,374.00
-317.33,297.00
-314.70,303.00
-312.07,-373.00
-309.44,698.00
-306.82,-18.00
-304.20,-324.00
-301.57,383.00
-298.96,470.00
-296.34,161.00
-293.72,-272.00
-291.11,561.00
-288.50,247.00
-285.89,-468.00
-283.28,976.00
-280.68,594.00
-278.07,-188.00
-275.47,-142.00
-272.87,121.00
-270.27,-184.00
-267.68,-352.00
-265.08,-263.00
-262.49,-107.00
-259.90,116.00
-257.31,-87.00
-254.72,647.00
-252.13,-598.00
-249.55,281.00
-246.97,193.00
-244.39,162.00
-241.81,50.00
-239.23,124.00
-236.65,-35.00
-234.08,-483.00
-231.51,416.00
-228.94,-200.00
-226.37,425.00
-223.81,374.00
-221.24,44.00
-218.68,-712.00
-216.12,55.00
-213.56,-96.00
-211.00,217.00
-208.45,-119.00
-205.89,50.00
-203.34,-346.00
-200.79,46.00
-198.24,-352.00
-195.69,693.00
-193.15,-152.00
-190.61,88.00
-188.06,-520.00
-185.52,138.00
-182.99,164.00
-180.45,-233.00
-177.92,388.00
-175.38,665.00
-172.85,-51.00
-170.32,-107.00
-167.79,343.00
-165.27,595.00
-162.74,118.00
-160.22,656.00
-157.70,-317.00
-155.18,-82.00
-152.66,-96.00
-150.15,-195.00
-147.64,-29.00
-145.12,431.00
-142.61,308.00
-140.10,150.00
-137.60,193.00
-135.09,-77.00
-132.59,64.00
-130.09,-319.00
-127.59,-247.00
-125.09,185.00
-122.59,-66.00
-120.10,541.00
-117.60,426.00
-115.11,50.00
-112.62,414.00
-110.13,356.00
-107.65,-206.00
-105.16,19.00
-102.68,-510.00
-100.20,-561.00
-97.72,-416.00
-95.24,-78.00
-92.76,18.00
-90.29,209.00
-87.82,517.00
-85.35,152.00
-82.88,227.00
-80.41,406.00
-77.94,407.00
-75.48,404.00
-73.01,-142.00
-70.55,265.00
-68.09,-54.00
-65.64,-78.00
-63.18,261.00
-60.73,-230.00
-58.27,-123.00
-55.82,56.00
-53.37,-166.00
-50.92,4.00
-48.48,-11.00
-46.03,-722.00
-43.59,310.00
-41.15,-285.00
-38.71,419.00
-36.27,132.00
-33.83,-76.00
-31.40,50.00
-28.97,42.00
-26.53,-81.00
-24.10,-191.00
-21.68,-461.00
-19.25,-301.00
-16.82,558.00
-14.40,27.00
-11.98,-420.00
-9.56,203.00
-7.14,-103.00
-4.72,-212.00
-2.31,787.00
0.10,99.00
2.52,32.00
4.93,373.00
7.34,493.00
9.74,-11.00
12.15,108.00
14.55,424.00
16.95,465.00
19.36,100.00
21.75,115.00
24.15,70.00
26.55,136.00
28.94,81.00
31.34,300.00
33.73,293.00
36.12,-144.00
38.50,-206.00
40.89,281.00
43.27,-263.00
45.66,-201.00
48.04,-285.00
50.42,-145.00
52.80,486.00
55.17,716.00
57.55,-221.00
59.92,111.00
62.30,-18.00
64.67,-95.00
67.04,109.00
69.40,-8.00
71.77,946.00
74.13,-280.00
76.50,-293.00
78.86,589.00
81.22,-351.00
83.57,-447.00
85.93,73.00
88.29,281.00
90.64,-145.00
92.99,46.00
95.34,-227.00
97.69,727.00
100.04,318.00
102.38,-12.00
104.73,187.00
107.07,-1.00
109.41,1019.00
111.75,-341.00
114.09,424.00
116.42,170.00
118.76,-509.00
121.09,663.00
123.42,-454.00
125.75,-98.00
128.08,322.00
130.41,-149.00
132.74,129.00
135.06,230.00
137.38,-27.00
139.70,216.00
142.02,-51.00
144.34,-124.00
146.66,434.00
148.97,-336.00
151.29,-30.00
153.60,137.00
155.91,-142.00
158.22,155.00
160.52,-126.00
162.83,365.00
165.13,290.00
167.44,-258.00
169.74,32.00
172.04,233.00
174.34,-57.00
176.63,553.00
178.93,-93.00
181.22,55.00
183.52,-377.00
185.81,-246.00
188.10,-534.00
190.38,-221.00
192.67,-136.00
194.96,453.00
197.24,-345.00
199.52,319.00
201.80,-185.00
204.08,320.00
206.36,-444.00
208.63,-106.00
210.91,-370.00
213.18,270.00
215.45,209.00
217.72,16.00
219.99,-136.00
222.26,117.00
224.53,-415.00
226.79,-517.00
229.05,-212.00
231.31,-205.00
233.57,173.00
235.83,-112.00
238.09,415.00
240.35,-522.00
242.60,-462.00
244.85,20.00
247.10,-333.00
249.35,-331.00
251.60,314.00
253.85,-219.00
256.09,106.00
258.34,-11.00
260.58,89.00
262.82,348.00
265.06,159.00
267.30,-85.00
269.54,111.00
271.77,89.00
274.01,-3.00
276.24,48.00
278.47,-579.00
280.70,368.00
282.93,336.00
285.15,589.00
287.38,596.00
289.60,-350.00
291.83,-109.00
294.05,-278.00
296.27,-452.00
298.48,299.00
300.70,-176.00
302.92,186.00
305.13,-61.00
307.34,-84.00
309.56,218.00
311.77,-486.00
313.97,16.00
316.18,278.00
318.39,414.00
320.59,-400.00
322.79,-157.00
324.99,-711.00
327.19,220.00
329.39,164.00
331.59,-172.00
333.79,422.00
335.98,290.00
338.17,122.00
340.37,-490.00
342.56,125.00
344.74,462.00
346.93,91.00
349.12,-85.00
351.30,228.00
353.49,-80.00
355.67,-245.00
357.85,368.00
360.03,120.00
362.21,702.00
364.38,709.00
366.56,609.00
368.73,816.00
370.90,774.00
373.08,1040.00
375.24,423.00
377.41,516.00
379.58,727.00
381.75,1149.00
383.91,641.00
386.07,327.00
388.23,-180.00
390.39,-286.00
392.55,632.00
394.71,1719.00
396.87,436.00
399.02,845.00
401.17,648.00
403.33,395.00
405.48,620.00
407.63,713.00
409.77,768.00
411.92,-133.00
414.07,897.00
416.21,817.00
418.35,189.00
420.49,786.00
422.63,578.00
424.77,1035.00
426.91,354.00
429.05,1047.00
431.18,955.00
433.31,439.00
435.45,793.00
437.58,683.00
439.71,342.00
441.83,705.00
443.96,-244.00
446.09,328.00
448.21,265.00
450.33,55.00
452.45,270.00
454.57,279.00
456.69,436.00
458.81,-89.00
460.93,410.00
463.04,-25.00
465.16,-70.00
467.27,239.00
469.38,67.00
471.49,581.00
473.60,949.00
475.70,443.00
477.81,-95.00
479.91,349.00
482.02,142.00
484.12,699.00
486.22,189.00
488.32,-75.00
490.42,584.00
492.51,-19.00
494.61,41.00
496.70,768.00
498.80,120.00
500.89,303.00
502.98,257.00
505.07,-87.00
507.15,453.00
509.24,-487.00
511.33,-471.00
513.41,-85.00
515.49,628.00
517.57,133.00
519.65,39.00
521.73,309.00
523.81,308.00
525.89,-292.00
527.96,-576.00
530.03,66.00
532.11,18.00
534.18,4.00
536.25,692.00
538.32,-284.00
540.38,74.00
542.45,339.00
544.51,-14.00
546.58,25.00
548.64,41.00
550.70,-692.00
552.76,164.00
554.82,-71.00
556.88,6.00
558.93,185.00
560.99,-55.00
563.04,-412.00
565.09,391.00
567.14,96.00
569.19,9.00
571.24,536.00
573.29,117.00
575.34,240.00
577.38,737.00
579.42,-314.00
581.47,41.00
583.51,-14.00
585.55,-502.00
587.59,285.00
589.62,331.00
591.66,-843.00
593.70,-429.00
595.73,-274.00
597.76,883.00
599.79,-145.00
601.82,-600.00
603.85,-53.00
605.88,-228.00
607.91,100.00
609.93,368.00
611.96,26.00
613.98,935.00
616.00,-134.00
618.02,-52.00
620.04,184.00
622.06,435.00
624.08,419.00
626.09,210.00
628.11,-193.00
630.12,195.00
632.13,472.00
634.14,240.00
636.15,-335.00
638.16,622.00
640.17,317.00
642.17,321.00
644.18,284.00
646.18,-6.00
648.18,301.00
650.18,152.00
652.18,366.00
654.18,366.00
656.18,-169.00
658.18,14.00
660.17,568.00
662.17,706.00
664.16,648.00
666.15,454.00
668.14,-725.00
670.13,1087.00
672.12,-320.00
674.11,240.00
676.09,-873.00
678.08,984.00
680.06,130.00
682.04,-9.00
684.02,281.00
686.00,-16.00
687.98,-379.00
689.96,-298.00
691.94,-433.00
693.91,546.00
695.89,627.00
697.86,192.00
699.83,462.00
701.80,157.00
703.77,139.00
705.74,376.00
707.71,1345.00
709.67,55.00
711.64,321.00
713.60,246.00
715.56,555.00
717.52,-404.00
719.48,-282.00
721.44,-199.00
723.40,590.00
725.36,335.00
727.31,501.00
729.27,419.00
731.22,-19.00
733.17,342.00
735.13,123.00
737.08,562.00
739.02,-212.00
740.97,392.00
742.92,381.00
744.86,-63.00
746.81,1423.00
748.75,649.00
750.69,1427.00
752.63,712.00
754.57,864.00
756.51,362.00
758.45,258.00
760.39,337.00
762.32,155.00
764.26,698.00
766.19,529.00
768.12,760.00
770.05,1308.00
771.98,278.00
773.91,651.00
775.84,1213.00
777.76,1190.00
779.69,1218.00
781.61,1527.00
783.54,1722.00
785.46,2668.00
787.38,3765.00
789.30,7058.00
791.22,10036.00
793.13,14675.00
795.05,17023.00
796.97,18647.00
798.88,17900.00
800.79,18586.00
802.70,16040.00
804.62,14084.00
806.52,9979.00
808.43,7199.00
810.34,5018.00
812.25,3965.00
814.15,2932.00
816.06,2254.00
817.96,2290.00
819.86,2294.00
821.76,1576.00
823.66,1582.00
825.56,712.00
827.46,673.00
829.36,1289.00
831.25,525.00
833.15,1061.00
835.04,267.00
836.93,1063.00
838.82,1422.00
840.71,677.00
842.60,990.00
844.49,593.00
846.38,712.00
848.26,704.00
850.15,14.00
852.03,310.00
853.91,949.00
855.80,631.00
857.68,-62.00
859.56,392.00
861.43,339.00
863.31,-786.00
865.19,795.00
867.06,175.00
868.94,1455.00
870.81,783.00
872.68,161.00
874.55,-219.00
876.42,296.00
878.29,353.00
880.16,771.00
882.03,330.00
883.89,513.00
885.76,1005.00
887.62,381.00
889.48,35.00
891.35,621.00
893.21,-141.00
895.07,893.00
896.92,494.00
898.78,384.00
900.64,544.00
902.49,1057.00
904.35,496.00
906.20,31.00
908.05,821.00
909.90,529.00
911.75,476.00
913.60,610.00
915.45,472.00
917.30,383.00
919.14,947.00
920.99,194.00
922.83,1048.00
924.68,548.00
926.52,302.00
928.36,590.00
930.20,238.00
932.04,344.00
933.87,1048.00
935.71,978.00
937.55,51.00
939.38,253.00
941.21,-246.00
943.05,679.00
944.88,842.00
946.71,412.00
948.54,1080.00
950.37,-609.00
952.20,77.00
954.02,179.00
955.85,918.00
957.67,-34.00
959.50,438.00
961.32,-359.00
963.14,1005.00
964.96,517.00
966.78,398.00
968.60,243.00
970.42,501.00
972.23,13.00
974.05,1252.00
975.86,229.00
977.68,830.00
979.49,-63.00
981.30,618.00
983.11,75.00
984.92,455.00
986.73,-26.00
988.54,1238.00
990.34,835.00
992.15,1214.00
993.95,1499.00
995.76,823.00
997.56,624.00
999.36,669.00
1001.16,1093.00
1002.96,1118.00
1004.76,1213.00
1006.56,761.00
1008.35,1361.00
1010.15,1690.00
1011.94,1447.00
1013.74,1944.00
1015.53,2192.00
1017.32,3205.00
1019.11,4304.00
1020.90,4330.00
1022.69,5182.00
1024.48,4269.00
1026.27,6007.00
1028.05,5350.00
1029.84,6824.00
1031.62,6600.00
1033.41,5888.00
1035.19,6346.00
1036.97,4783.00
1038.75,3683.00
1040.53,4210.00
1042.31,1919.00
1044.08,2752.00
1045.86,3280.00
1047.64,3451.00
1049.41,2181.00
1051.18,1720.00
1052.96,1482.00
1054.73,1827.00
1056.50,1714.00
1058.27,923.00
1060.04,795.00
1061.81,1283.00
1063.57,1215.00
1065.34,837.00
1067.10,286.00
1068.87,285.00
1070.63,638.00
1072.39,516.00
1074.15,1063.00
1075.91,456.00
1077.67,528.00
1079.43,652.00
1081.19,149.00
1082.95,-33.00
1084.70,1298.00
1086.46,693.00
1088.21,372.00
1089.96,284.00
1091.71,29.00
1093.47,1101.00
1095.22,745.00
1096.96,730.00
1098.71,869.00
1100.46,228.00
1102.21,717.00
1103.95,1328.00
1105.70,976.00
1107.44,348.00
1109.18,-231.00
1110.92,-52.00
1112.66,835.00
1114.40,942.00
1116.14,331.00
1117.88,238.00
1119.62,356.00
1121.35,612.00
1123.09,763.00
1124.82,-576.00
1126.56,715.00
1128.29,966.00
1130.02,1347.00
1131.75,158.00
1133.48,343.00
1135.21,996.00
1136.94,404.00
1138.67,467.00
1140.39,525.00
1142.12,931.00
1143.84,629.00
1145.57,577.00
1147.29,1229.00
1149.01,1056.00
1150.73,2064.00
1152.45,1138.00
1154.17,1888.00
1155.89,512.00
1157.60,1297.00
1159.32,1985.00
1161.04,1282.00
1162.75,1465.00
1164.46,1441.00
1166.18,1054.00
1167.89,1460.00
1169.60,1843.00
1171.31,1021.00
1173.02,1135.00
1174.73,299.00
1176.43,-82.00
1178.14,890.00
1179.85,-182.00
1181.55,929.00
1183.25,262.00
1184.96,276.00
1186.66,-311.00
1188.36,1161.00
1190.06,681.00
1191.76,749.00
1193.46,1054.00
1195.16,556.00
1196.85,565.00
1198.55,501.00
1200.24,291.00
1201.94,903.00
1203.63,252.00
1205.32,585.00
1207.02,529.00
1208.71,812.00
1210.40,601.00
1212.09,595.00
1213.77,692.00
1215.46,163.00
1217.15,897.00
1218.83,1382.00
1220.52,838.00
1222.20,1092.00
1223.88,776.00
1225.57,305.00
1227.25,1332.00
1228.93,-155.00
1230.61,1177.00
1232.29,-61.00
1233.96,830.00
1235.64,602.00
1237.32,1245.00
1238.99,646.00
1240.67,725.00
1242.34,985.00
1244.01,1020.00
1245.69,-46.00
1247.36,1605.00
1249.03,1284.00
1250.70,1468.00
1252.36,2634.00
1254.03,1862.00
1255.70,2414.00
1257.37,3159.00
1259.03,2689.00
1260.69,3561.00
1262.36,3047.00
1264.02,3894.00
1265.68,5046.00
1267.34,4226.00
1269.00,5515.00
1270.66,4369.00
1272.32,4982.00
1273.98,5476.00
1275.64,4445.00
1277.29,4828.00
1278.95,3136.00
1280.60,4108.00
1282.25,3781.00
1283.91,3729.00
1285.56,3568.00
1287.21,1753.00
1288.86,1901.00
1290.51,1180.00
1292.16,1478.00
1293.81,1412.00
1295.45,907.00
1297.10,1457.00
1298.74,1422.00
1300.39,1041.00
1302.03,534.00
1303.68,1063.00
1305.32,684.00
1306.96,1034.00
1308.60,1107.00
1310.24,1590.00
1311.88,1831.00
1313.52,1291.00
1315.15,982.00
1316.79,1111.00
1318.42,1050.00
1320.06,668.00
1321.69,1519.00
1323.33,66.00
1324.96,713.00
1326.59,1165.00
1328.22,658.00
1329.85,640.00
1331.48,1143.00
1333.11,1047.00
1334.74,973.00
1336.36,1577.00
1337.99,988.00
1339.61,267.00
1341.24,960.00
1342.86,1702.00
1344.48,1044.00
1346.11,1377.00
1347.73,1418.00
1349.35,1026.00
1350.97,1328.00
1352.58,1475.00
1354.20,1634.00
1355.82,987.00
1357.44,1493.00
1359.05,913.00
1360.67,926.00
1362.28,782.00
1363.89,1080.00
1365.51,1120.00
1367.12,720.00
1368.73,1321.00
1370.34,1592.00
1371.95,770.00
1373.56,1209.00
1375.17,1047.00
1376.77,857.00
1378.38,540.00
1379.98,1385.00
1381.59,828.00
1383.19,896.00
1384.80,376.00
1386.40,1593.00
1388.00,794.00
1389.60,1727.00
1391.20,30.00
1392.80,485.00
1394.40,935.00
1396.00,898.00
1397.59,562.00
1399.19,653.00
1400.78,1273.00
1402.38,795.00
1403.97,635.00
1405.57,1139.00
1407.16,989.00
1408.75,1283.00
1410.34,1032.00
1411.93,858.00
1413.52,881.00
1415.11,738.00
1416.70,883.00
1418.28,1472.00
1419.87,788.00
1421.46,1953.00
1423.04,1841.00
1424.63,1416.00
1426.21,1844.00
1427.79,2295.00
1429.37,2176.00
1430.95,1112.00
1432.54,2266.00
1434.11,2607.00
1435.69,3024.00
1437.27,3610.00
1438.85,3671.00
1440.43,3397.00
1442.00,3616.00
1443.58,4000.00
1445.15,4378.00
1446.72,4389.00
1448.30,4432.00
1449.87,4661.00
1451.44,5576.00
1453.01,4461.00
1454.58,5056.00
1456.15,4188.00
1457.72,4249.00
1459.29,4162.00
1460.85,4530.00
1462.42,2778.00
1463.99,3193.00
1465.55,3288.00
1467.12,2687.00
1468.68,2181.00
1470.24,1712.00
1471.80,1312.00
1473.36,1893.00
1474.93,2309.00
1476.49,1528.00
1478.04,1069.00
1479.60,1016.00
1481.16,1384.00
1482.72,1059.00
1484.27,1291.00
1485.83,1254.00
1487.38,1599.00
1488.94,1735.00
1490.49,507.00
1492.04,1065.00
1493.60,1050.00
1495.15,1349.00
1496.70,1510.00
1498.25,843.00
1499.80,896.00
1501.34,954.00
1502.89,291.00
1504.44,303.00
1505.98,474.00
1507.53,1595.00
1509.07,1422.00
1510.62,929.00
1512.16,753.00
1513.70,709.00
1515.25,665.00
1516.79,873.00
1518.33,595.00
1519.87,1518.00
1521.41,711.00
1522.95,781.00
1524.48,194.00
1526.02,731.00
1527.56,811.00
1529.09,797.00
1530.63,389.00
1532.16,1150.00
1533.69,-96.00
1535.23,308.00
1536.76,691.00
1538.29,983.00
1539.82,1168.00
1541.35,313.00
1542.88,1001.00
1544.41,867.00
1545.94,1127.00
1547.47,495.00
1548.99,462.00
1550.52,77.00
1552.04,493.00
1553.57,458.00
1555.09,460.00
1556.61,951.00
1558.14,962.00
1559.66,509.00
1561.18,872.00
1562.70,767.00
1564.22,327.00
1565.74,106.00
1567.26,327.00
1568.78,998.00
1570.29,27.00
1571.81,427.00
1573.32,372.00
1574.84,492.00
1576.35,836.00
1577.87,841.00
1579.38,394.00
1580.89,772.00
1582.41,55.00
1583.92,653.00
1585.43,429.00
1586.94,842.00
1588.45,1274.00
1589.95,896.00
1591.46,425.00
1592.97,1158.00
1594.47,212.00
1595.98,319.00
1597.49,25.00
1598.99,825.00
1600.49,863.00
1602.00,888.00
1603.50,466.00
1605.00,210.00
1606.50,618.00
1608.00,772.00
1609.50,344.00
1611.00,525.00
1612.50,536.00
1614.00,532.00
1615.49,755.00
1616.99,744.00
1618.49,727.00
1619.98,213.00
1621.48,531.00
1622.97,350.00
1624.46,723.00
1625.96,225.00
1627.45,846.00
1628.94,300.00
1630.43,552.00
1631.92,393.00
1633.41,1378.00
1634.90,603.00
1636.39,-202.00
1637.87,57.00
1639.36,1380.00
1640.85,1099.00
1642.33,365.00
1643.82,409.00
1645.30,1113.00
1646.78,88.00
1648.27,799.00
1649.75,1115.00
1651.23,585.00
1652.71,419.00
1654.19,541.00
1655.67,844.00
1657.15,387.00
1658.63,860.00
1660.11,350.00
1661.58,1083.00
1663.06,744.00
1664.54,943.00
1666.01,1265.00
1667.49,-105.00
1668.96,777.00
1670.43,841.00
1671.91,75.00
1673.38,128.00
1674.85,997.00
1676.32,804.00
1677.79,393.00
1679.26,422.00
1680.73,329.00
1682.20,649.00
1683.67,518.00
1685.14,276.00
1686.60,651.00
1688.07,357.00
1689.53,227.00
1691.00,1035.00
1692.46,422.00
1693.93,924.00
1695.39,412.00
1696.85,569.00
1698.31,58.00
1699.77,908.00
1701.23,915.00
1702.69,821.00
1704.15,1011.00
1705.61,115.00
1707.07,1078.00
1708.53,673.00
1709.98,437.00
1711.44,784.00
1712.90,341.00
1714.35,921.00
1715.81,720.00
1717.26,200.00
1718.71,620.00
1720.16,442.00
1721.62,112.00
1723.07,336.00
1724.52,868.00
1725.97,989.00
1727.42,513.00
1728.87,527.00
1730.32,1786.00
1731.76,104.00
1733.21,208.00
1734.66,805.00
1736.10,598.00
1737.55,1265.00
1738.99,926.00
1740.44,1175.00
1741.88,491.00
1743.32,168.00
1744.77,310.00
1746.21,582.00
1747.65,860.00
1749.09,776.00
1750.53,16.00
1751.97,812.00
1753.41,279.00
1754.85,449.00
1756.29,725.00
1757.72,712.00
1759.16,1515.00
1760.60,-381.00
1762.03,664.00
1763.47,1166.00
1764.90,838.00
1766.33,1291.00
1767.77,1084.00
1769.20,742.00
1770.63,493.00
1772.06,1423.00
1773.49,451.00
1774.92,1293.00
1776.35,586.00
1777.78,569.00
1779.21,392.00
1780.64,237.00
1782.07,999.00
1783.49,584.00
1784.92,-250.00
1786.34,240.00
1787.77,663.00
1789.19,543.00
1790.62,755.00
1792.04,556.00
1793.46,861.00
1794.89,1128.00
1796.31,1114.00
1797.73,619.00
1799.15,631.00
1800.57,336.00
1801.99,570.00
1803.41,246.00
1804.83,513.00
1806.24,-116.00
1807.66,-352.00
1809.08,1423.00
1810.49,190.00
1811.91,382.00
1813.32,-189.00
1814.74,597.00
1816.15,292.00
1817.57,352.00
1818.98,647.00
1820.39,225.00
1821.80,1110.00
1823.21,307.00
1824.62,403.00
1826.03,-151.00
1827.44,756.00
1828.85,906.00
1830.26,531.00
1831.67,1122.00
1833.08,418.00
1834.48,-20.00
1835.89,1315.00
1837.29,309.00
1838.70,807.00
1840.10,387.00
1841.51,1075.00
1842.91,308.00
1844.31,702.00
1845.72,344.00
1847.12,1028.00
1848.52,310.00
1849.92,629.00
1851.32,113.00
1852.72,930.00
1854.12,654.00
1855.52,729.00
1856.91,344.00
1858.31,606.00
1859.71,822.00
1861.11,71.00
1862.50,380.00
1863.90,478.00
1865.29,-120.00
1866.69,823.00
1868.08,840.00
1869.47,199.00
1870.87,517.00
1872.26,1428.00
1873.65,-180.00
1875.04,848.00
1876.43,511.00
1877.82,195.00
1879.21,1064.00
1880.60,717.00
1881.99,-186.00
