ENLIGHTEN Version,1.6.8
Measurement ID,20190528-175818-041034-WP-00421
Serial Number,WP-00421
Label,Cyclohexane
Integration Time,100
Timestamp,2019-05-28 17:58:18.041034
Note,
Temperature,-99
CCD C0,845.722412109375
CCD C1,0.1515599936246872
CCD C2,-8.504200195602607e-06
CCD C3,-7.913800281755812e-09
CCD Offset,0
CCD Gain,1.9
Laser Wavelength,830.0
Laser Enable,True
Laser Power,100.0
Laser Temperature,-99
Pixel Count,1024

Wavenumber,Processed
223.98,11.00
226.10,14.00
228.22,17.00
230.33,22.00
232.45,49.00
234.56,30.00
236.68,34.00
238.79,47.00
240.90,34.00
243.01,48.00
245.12,42.00
247.23,49.00
249.34,38.00
251.44,23.00
253.55,11.00
255.65,33.00
257.76,21.00
259.86,36.00
261.96,-2.00
264.06,13.00
266.16,4.00
268.26,11.00
270.36,-5.00
272.46,9.00
274.55,-2.00
276.65,-6.00
278.74,0.00
280.83,17.00
282.92,2.00
285.01,-2.00
287.10,13.00
289.19,-2.00
291.28,-4.00
293.37,7.00
295.45,12.00
297.54,-8.00
299.62,2.00
301.70,-6.00
303.78,0.00
305.86,-3.00
307.94,-8.00
310.02,-10.00
312.10,4.00
314.18,-13.00
316.25,-9.00
318.33,-15.00
320.40,0.00
322.47,11.00
324.54,-8.00
326.62,-12.00
328.69,-5.00
330.75,-23.00
332.82,-10.00
334.89,19.00
336.95,-6.00
339.02,23.00
341.08,2.00
343.14,19.00
345.21,17.00
347.27,19.00
349.33,14.00
351.39,31.00
353.44,40.00
355.50,61.00
357.56,45.00
359.61,80.00
361.66,101.00
363.72,116.00
365.77,152.00
367.82,195.00
369.87,239.00
371.92,323.00
373.96,450.00
376.01,638.00
378.06,807.00
380.10,1029.00
382.15,1198.00
384.19,1243.00
386.23,1177.00
388.27,1016.00
390.31,813.00
392.35,568.00
394.39,437.00
396.42,323.00
398.46,241.00
400.49,232.00
402.53,228.00
404.56,219.00
406.59,222.00
408.62,235.00
410.65,252.00
412.68,296.00
414.71,390.00
416.74,528.00
418.76,725.00
420.79,955.00
422.81,1219.00
424.83,1456.00
426.86,1532.00
428.88,1505.00
430.90,1289.00
432.91,1067.00
434.93,781.00
436.95,559.00
438.97,426.00
440.98,346.00
442.99,272.00
445.01,217.00
447.02,174.00
449.03,156.00
451.04,121.00
453.05,123.00
455.06,110.00
457.06,95.00
459.07,72.00
461.07,78.00
463.08,82.00
465.08,86.00
467.08,83.00
469.08,119.00
471.08,110.00
473.08,125.00
475.08,152.00
477.08,120.00
479.07,148.00
481.07,129.00
483.06,108.00
485.05,89.00
487.05,66.00
489.04,42.00
491.03,26.00
493.02,19.00
495.00,0.00
496.99,-15.00
498.98,7.00
500.96,7.00
502.95,-4.00
504.93,-10.00
506.91,-21.00
508.89,-23.00
510.87,-2.00
512.85,2.00
514.83,-2.00
516.81,-30.00
518.78,-9.00
520.76,-2.00
522.73,-2.00
524.71,4.00
526.68,-10.00
528.65,-8.00
530.62,4.00
532.59,-19.00
534.56,-42.00
536.52,-13.00
538.49,-10.00
540.45,-11.00
542.42,-30.00
544.38,-21.00
546.34,-25.00
548.30,-26.00
550.26,-51.00
552.22,-68.00
554.18,-38.00
556.14,-40.00
558.10,-40.00
560.05,-47.00
562.00,-53.00
563.96,-77.00
565.91,-72.00
567.86,-78.00
569.81,-65.00
571.76,-64.00
573.71,-49.00
575.66,-88.00
577.60,-65.00
579.55,-79.00
581.49,-78.00
583.43,-81.00
585.38,-72.00
587.32,-74.00
589.26,-64.00
591.20,-69.00
593.14,-78.00
595.07,-93.00
597.01,-68.00
598.95,-76.00
600.88,-78.00
602.81,-80.00
604.75,-125.00
606.68,-71.00
608.61,-114.00
610.54,-99.00
612.46,-103.00
614.39,-78.00
616.32,-101.00
618.24,-97.00
620.17,-99.00
622.09,-69.00
624.01,-93.00
625.94,-97.00
627.86,-83.00
629.78,-133.00
631.69,-133.00
633.61,-118.00
635.53,-138.00
637.44,-128.00
639.36,-127.00
641.27,-131.00
643.18,-128.00
645.10,-148.00
647.01,-122.00
648.92,-157.00
650.82,-148.00
652.73,-157.00
654.64,-155.00
656.54,-155.00
658.45,-159.00
660.35,-129.00
662.25,-144.00
664.16,-163.00
666.06,-148.00
667.96,-182.00
669.86,-157.00
671.75,-160.00
673.65,-171.00
675.55,-173.00
677.44,-171.00
679.33,-165.00
681.23,-199.00
683.12,-184.00
685.01,-221.00
686.90,-199.00
688.79,-179.00
690.68,-169.00
692.56,-150.00
694.45,-174.00
696.33,-178.00
698.22,-181.00
700.10,-222.00
701.98,-203.00
703.86,-180.00
705.74,-171.00
707.62,-182.00
709.50,-207.00
711.38,-205.00
713.25,-144.00
715.13,-154.00
717.00,-150.00
718.87,-180.00
720.75,-173.00
722.62,-167.00
724.49,-136.00
726.36,-143.00
728.22,-129.00
730.09,-148.00
731.96,-123.00
733.82,-104.00
735.69,-149.00
737.55,-106.00
739.41,-78.00
741.27,-78.00
743.13,-100.00
744.99,-72.00
746.85,-87.00
748.71,-53.00
750.56,-53.00
752.42,-40.00
754.27,-29.00
756.12,17.00
757.98,17.00
759.83,61.00
761.68,91.00
763.53,65.00
765.38,156.00
767.22,196.00
769.07,222.00
770.91,231.00
772.76,297.00
774.60,336.00
776.44,422.00
778.29,469.00
780.13,590.00
781.97,687.00
783.80,810.00
785.64,999.00
787.48,1223.00
789.31,1477.00
791.15,1993.00
792.98,2979.00
794.81,4914.00
796.64,8500.00
798.48,15752.00
800.30,25253.00
802.13,31331.00
803.96,32040.00
805.79,27977.00
807.61,19814.00
809.44,10840.00
811.26,5162.00
813.08,2694.00
814.91,1705.00
816.73,1133.00
818.55,834.00
820.36,636.00
822.18,505.00
824.00,412.00
825.81,306.00
827.63,249.00
829.44,186.00
831.26,166.00
833.07,99.00
834.88,76.00
836.69,85.00
838.50,68.00
840.30,33.00
842.11,52.00
843.92,31.00
845.72,30.00
847.53,26.00
849.33,53.00
851.13,68.00
852.93,57.00
854.73,93.00
856.53,69.00
858.33,49.00
860.13,6.00
861.92,13.00
863.72,-8.00
865.51,-65.00
867.30,-91.00
869.10,-87.00
870.89,-84.00
872.68,-91.00
874.47,-93.00
876.26,-116.00
878.04,-109.00
879.83,-91.00
881.61,-112.00
883.40,-95.00
885.18,-143.00
886.96,-114.00
888.75,-99.00
890.53,-95.00
892.30,-101.00
894.08,-117.00
895.86,-93.00
897.64,-114.00
899.41,-38.00
901.19,-36.00
902.96,-78.00
904.73,-114.00
906.50,-73.00
908.27,-45.00
910.04,-95.00
911.81,-83.00
913.58,-97.00
915.35,-119.00
917.11,-92.00
918.88,-102.00
920.64,-121.00
922.40,-99.00
924.17,-121.00
925.93,-108.00
927.69,-128.00
929.44,-105.00
931.20,-141.00
932.96,-131.00
934.71,-110.00
936.47,-144.00
938.22,-176.00
939.98,-158.00
941.73,-145.00
943.48,-148.00
945.23,-150.00
946.98,-107.00
948.73,-112.00
950.47,-122.00
952.22,-125.00
953.96,-97.00
955.71,-100.00
957.45,-121.00
959.19,-106.00
960.93,-104.00
962.67,-125.00
964.41,-70.00
966.15,-93.00
967.89,-82.00
969.63,-112.00
971.36,-99.00
973.09,-69.00
974.83,-23.00
976.56,-64.00
978.29,4.00
980.02,6.00
981.75,-9.00
983.48,61.00
985.21,85.00
986.93,101.00
988.66,106.00
990.38,167.00
992.11,186.00
993.83,219.00
995.55,275.00
997.27,315.00
998.99,378.00
1000.71,395.00
1002.43,488.00
1004.14,581.00
1005.86,706.00
1007.57,809.00
1009.29,993.00
1011.00,1164.00
1012.71,1409.00
1014.42,1697.00
1016.13,2031.00
1017.84,2569.00
1019.55,3212.00
1021.26,3901.00
1022.96,4879.00
1024.67,5967.00
1026.37,7012.00
1028.08,7744.00
1029.78,8128.00
1031.48,7892.00
1033.18,7253.00
1034.88,6318.00
1036.58,5164.00
1038.27,4201.00
1039.97,3383.00
1041.66,2718.00
1043.36,2272.00
1045.05,1919.00
1046.74,1593.00
1048.44,1367.00
1050.13,1186.00
1051.82,1039.00
1053.50,867.00
1055.19,784.00
1056.88,669.00
1058.56,619.00
1060.25,556.00
1061.93,533.00
1063.61,424.00
1065.30,390.00
1066.98,328.00
1068.66,287.00
1070.33,284.00
1072.01,239.00
1073.69,207.00
1075.36,186.00
1077.04,161.00
1078.71,152.00
1080.39,141.00
1082.06,110.00
1083.73,121.00
1085.40,83.00
1087.07,74.00
1088.74,64.00
1090.40,87.00
1092.07,85.00
1093.73,89.00
1095.40,100.00
1097.06,95.00
1098.72,115.00
1100.38,95.00
1102.04,100.00
1103.70,91.00
1105.36,127.00
1107.02,77.00
1108.67,80.00
1110.33,99.00
1111.98,72.00
1113.64,64.00
1115.29,68.00
1116.94,53.00
1118.59,87.00
1120.24,63.00
1121.89,49.00
1123.54,70.00
1125.18,55.00
1126.83,26.00
1128.47,29.00
1130.12,34.00
1131.76,40.00
1133.40,51.00
1135.04,73.00
1136.68,64.00
1138.32,76.00
1139.96,112.00
1141.60,120.00
1143.23,140.00
1144.87,179.00
1146.50,216.00
1148.13,277.00
1149.77,388.00
1151.40,467.00
1153.03,698.00
1154.66,1097.00
1156.29,1560.00
1157.91,1953.00
1159.54,2111.00
1161.16,1935.00
1162.79,1615.00
1164.41,1072.00
1166.03,663.00
1167.66,397.00
1169.28,230.00
1170.89,183.00
1172.51,148.00
1174.13,100.00
1175.75,62.00
1177.36,32.00
1178.98,36.00
1180.59,4.00
1182.20,18.00
1183.82,19.00
1185.43,-9.00
1187.04,-27.00
1188.64,-15.00
1190.25,-15.00
1191.86,-10.00
1193.47,-34.00
1195.07,-31.00
1196.67,3.00
1198.28,-27.00
1199.88,-9.00
1201.48,13.00
1203.08,17.00
1204.68,-3.00
1206.28,19.00
1207.88,44.00
1209.47,51.00
1211.07,51.00
1212.66,70.00
1214.25,66.00
1215.85,64.00
1217.44,61.00
1219.03,102.00
1220.62,118.00
1222.21,110.00
1223.79,112.00
1225.38,135.00
1226.97,133.00
1228.55,193.00
1230.13,205.00
1231.72,203.00
1233.30,251.00
1234.88,256.00
1236.46,306.00
1238.04,332.00
1239.62,432.00
1241.19,460.00
1242.77,528.00
1244.34,592.00
1245.92,661.00
1247.49,758.00
1249.06,879.00
1250.63,1002.00
1252.20,1209.00
1253.77,1405.00
1255.34,1739.00
1256.91,2094.00
1258.48,2546.00
1260.04,3180.00
1261.61,3799.00
1263.17,4661.00
1264.73,5374.00
1266.29,5929.00
1267.85,6313.00
1269.41,6237.00
1270.97,5775.00
1272.53,5143.00
1274.09,4412.00
1275.64,3711.00
1277.20,3026.00
1278.75,2542.00
1280.30,2151.00
1281.86,1847.00
1283.41,1574.00
1284.96,1358.00
1286.51,1166.00
1288.05,1040.00
1289.60,974.00
1291.15,836.00
1292.69,725.00
1294.24,665.00
1295.78,608.00
1297.32,539.00
1298.86,522.00
1300.40,463.00
1301.94,409.00
1303.48,412.00
1305.02,380.00
1306.56,349.00
1308.09,314.00
1309.63,328.00
1311.16,285.00
1312.69,306.00
1314.22,262.00
1315.75,278.00
1317.28,281.00
1318.81,277.00
1320.34,268.00
1321.87,270.00
1323.39,263.00
1324.92,300.00
1326.44,306.00
1327.97,328.00
1329.49,347.00
1331.01,367.00
1332.53,404.00
1334.05,450.00
1335.57,484.00
1337.08,528.00
1338.60,602.00
1340.12,651.00
1341.63,759.00
1343.14,849.00
1344.66,953.00
1346.17,1021.00
1347.68,1071.00
1349.19,1080.00
1350.70,1081.00
1352.20,1010.00
1353.71,963.00
1355.22,854.00
1356.72,735.00
1358.23,619.00
1359.73,544.00
1361.23,463.00
1362.73,408.00
1364.23,351.00
1365.73,328.00
1367.23,293.00
1368.73,256.00
1370.22,247.00
1371.72,228.00
1373.21,201.00
1374.71,192.00
1376.20,186.00
1377.69,176.00
1379.18,172.00
1380.67,195.00
1382.16,172.00
1383.65,180.00
1385.13,192.00
1386.62,184.00
1388.10,177.00
1389.59,174.00
1391.07,192.00
1392.55,203.00
1394.03,201.00
1395.51,207.00
1396.99,222.00
1398.47,222.00
1399.95,233.00
1401.42,264.00
1402.90,264.00
1404.37,292.00
1405.85,308.00
1407.32,338.00
1408.79,359.00
1410.26,419.00
1411.73,448.00
1413.20,480.00
1414.67,509.00
1416.13,613.00
1417.60,672.00
1419.06,756.00
1420.53,904.00
1421.99,1025.00
1423.45,1145.00
1424.91,1288.00
1426.37,1407.00
1427.83,1577.00
1429.29,1692.00
1430.75,1849.00
1432.20,1985.00
1433.66,2238.00
1435.11,2538.00
1436.57,2900.00
1438.02,3267.00
1439.47,3787.00
1440.92,4352.00
1442.37,4941.00
1443.82,5462.00
1445.26,5650.00
1446.71,5600.00
1448.16,5426.00
1449.60,4900.00
1451.05,4365.00
1452.49,3768.00
1453.93,3278.00
1455.37,2790.00
1456.81,2444.00
1458.25,2124.00
1459.69,1841.00
1461.13,1712.00
1462.56,1563.00
1464.00,1477.00
1465.43,1443.00
1466.86,1350.00
1468.30,1300.00
1469.73,1186.00
1471.16,1016.00
1472.59,930.00
1474.02,797.00
1475.44,745.00
1476.87,680.00
1478.30,603.00
1479.72,556.00
1481.14,562.00
1482.57,499.00
1483.99,494.00
1485.41,488.00
1486.83,467.00
1488.25,435.00
1489.67,414.00
1491.08,397.00
1492.50,361.00
1493.92,324.00
1495.33,307.00
1496.74,274.00
1498.16,275.00
1499.57,245.00
1500.98,220.00
1502.39,216.00
1503.80,209.00
1505.20,150.00
1506.61,173.00
1508.02,160.00
1509.42,137.00
1510.82,142.00
1512.23,110.00
1513.63,104.00
1515.03,122.00
1516.43,106.00
1517.83,87.00
1519.23,93.00
1520.63,93.00
1522.02,86.00
1523.42,84.00
1524.81,65.00
1526.20,72.00
1527.60,76.00
1528.99,65.00
1530.38,76.00
1531.77,78.00
1533.16,65.00
1534.55,76.00
1535.93,76.00
1537.32,74.00
1538.70,68.00
1540.09,82.00
1541.47,82.00
1542.85,75.00
1544.23,80.00
1545.61,62.00
1546.99,71.00
1548.37,61.00
1549.75,42.00
1551.12,55.00
1552.50,50.00
1553.87,46.00
1555.25,52.00
1556.62,40.00
1557.99,44.00
1559.36,30.00
1560.73,42.00
1562.10,46.00
1563.47,47.00
1564.84,46.00
1566.20,48.00
1567.57,53.00
1568.93,59.00
1570.29,64.00
1571.66,53.00
1573.02,63.00
1574.38,58.00
1575.74,53.00
1577.10,55.00
1578.45,42.00
1579.81,48.00
1581.16,36.00
1582.52,32.00
1583.87,34.00
1585.23,34.00
1586.58,19.00
1587.93,25.00
1589.28,27.00
1590.63,21.00
1591.98,11.00
1593.32,19.00
1594.67,5.00
1596.01,6.00
1597.36,14.00
1598.70,-4.00
1600.04,6.00
1601.39,8.00
1602.73,12.00
1604.07,12.00
1605.40,2.00
1606.74,2.00
1608.08,4.00
1609.41,2.00
1610.75,-4.00
1612.08,0.00
1613.42,-10.00
1614.75,-6.00
1616.08,4.00
1617.41,-11.00
1618.74,-6.00
1620.07,2.00
1621.39,-6.00
1622.72,-2.00
1624.04,-6.00
1625.37,-11.00
1626.69,12.00
1628.02,5.00
1629.34,2.00
1630.66,-8.00
1631.98,-3.00
1633.30,3.00
1634.61,-4.00
1635.93,6.00
1637.25,-12.00
1638.56,2.00
1639.88,4.00
1641.19,19.00
1642.50,-4.00
1643.81,19.00
1645.12,2.00
1646.43,24.00
1647.74,-6.00
1649.05,0.00
1650.35,-4.00
1651.66,-11.00
1652.96,-13.00
1654.27,-4.00
1655.57,14.00
1656.87,0.00
1658.17,8.00
1659.47,-4.00
1660.77,6.00
1662.07,0.00
1663.37,9.00
1664.66,-8.00
1665.96,12.00
1667.25,14.00
1668.55,4.00
1669.84,8.00
1671.13,22.00
1672.42,10.00
1673.71,19.00
1675.00,10.00
1676.29,17.00
1677.58,21.00
1678.86,29.00
1680.15,40.00
1681.43,23.00
1682.71,19.00
1684.00,34.00
1685.28,21.00
1686.56,40.00
1687.84,46.00
1689.11,46.00
1690.39,51.00
1691.67,61.00
1692.94,72.00
1694.22,44.00
1695.49,49.00
1696.76,60.00
1698.04,57.00
1699.31,33.00
1700.58,61.00
1701.85,40.00
1703.11,38.00
1704.38,36.00
1705.65,30.00
1706.91,36.00
1708.18,14.00
1709.44,36.00
1710.70,36.00
1711.96,26.00
1713.22,19.00
1714.48,17.00
1715.74,19.00
1717.00,11.00
1718.26,35.00
1719.51,28.00
1720.77,23.00
1722.02,31.00
1723.28,27.00
1724.53,17.00
1725.78,51.00
1727.03,-2.00
1728.28,26.00
1729.53,17.00
1730.77,11.00
1732.02,15.00
1733.27,24.00
1734.51,6.00
1735.75,23.00
1737.00,19.00
1738.24,21.00
1739.48,19.00
1740.72,19.00
1741.96,1.00
1743.20,14.00
1744.43,16.00
1745.67,8.00
1746.91,10.00
1748.14,21.00
1749.37,15.00
1750.61,2.00
1751.84,4.00
1753.07,8.00
1754.30,-2.00
1755.53,13.00
1756.75,-2.00
1757.98,13.00
1759.21,-4.00
1760.43,7.00
1761.66,6.00
1762.88,15.00
1764.10,17.00
1765.32,12.00
1766.54,4.00
1767.76,4.00
1768.98,17.00
1770.20,10.00
1771.41,-5.00
1772.63,7.00
1773.84,10.00
1775.06,-9.00
1776.27,0.00
1777.48,2.00
1778.69,-15.00
1779.90,-4.00
1781.11,-4.00
1782.32,4.00
1783.53,-19.00
1784.73,-17.00
1785.94,4.00
1787.14,-7.00
1788.35,-9.00
1789.55,-5.00
1790.75,-4.00
1791.95,-10.00
1793.15,-8.00
1794.35,-15.00
1795.55,-26.00
1796.75,-14.00
1797.94,-12.00
1799.14,-12.00
1800.33,-8.00
1801.52,-18.00
1802.72,-14.00
1803.91,-10.00
1805.10,-10.00
1806.29,-17.00
1807.48,-11.00
1808.66,-11.00
1809.85,-13.00
1811.04,0.00
1812.22,3.00
1813.41,-7.00
1814.59,-17.00
1815.77,5.00
1816.95,4.00
1818.13,-2.00
1819.31,2.00
1820.49,-7.00
1821.67,-11.00
1822.84,-6.00
1824.02,-8.00
1825.19,-5.00
1826.37,-16.00
1827.54,-19.00
1828.71,4.00
1829.88,-5.00
1831.05,-13.00
1832.22,-6.00
1833.39,9.00
1834.56,11.00
1835.72,-7.00
1836.89,2.00
1838.05,-14.00
1839.22,4.00
1840.38,11.00
1841.54,11.00
1842.70,8.00
1843.86,30.00
1845.02,-4.00
1846.18,2.00
1847.33,7.00
1848.49,11.00
1849.64,-3.00
1850.80,17.00
1851.95,-2.00
1853.10,0.00
1854.25,4.00
1855.41,14.00
1856.55,4.00
1857.70,12.00
1858.85,11.00
1860.00,0.00
1861.14,-10.00
1862.29,17.00
1863.43,8.00
1864.57,2.00
1865.72,-10.00
1866.86,12.00
1868.00,2.00
1869.14,15.00
1870.28,23.00
1871.41,-2.00
1872.55,34.00
1873.68,23.00
1874.82,9.00
1875.95,14.00
1877.09,28.00
1878.22,7.00
1879.35,14.00
