ENLIGHTEN Version,1.6.8
Measurement ID,20190528-105923-458380-WP-00357
Serial Number,WP-00357
Label,Ethanol
Integration Time,10
Timestamp,2019-05-28 10:59:23.458380
Note,
Temperature,-99
CCD C0,801.1829833984375
CCD C1,0.12474799901247025
CCD C2,-2.2862799596623518e-05
CCD C3,4.907460215974879e-09
CCD Offset,0
CCD Gain,1.9
Laser Wavelength,785.0
Laser Enable,False
Laser Power,100.0
Laser Temperature,-99
Pixel Count,1952

Wavenumber,Processed
257.31,0.00
259.25,0.00
261.19,0.00
263.13,-148.00
265.07,-493.00
267.01,421.00
268.95,409.00
270.88,628.00
272.82,189.00
274.75,12.00
276.68,-143.00
278.61,-559.00
280.54,-360.00
282.46,-254.00
284.39,347.00
286.31,11.00
288.24,-183.00
290.16,-288.00
292.08,-921.00
294.00,-268.00
295.92,126.00
297.83,44.00
299.75,666.00
301.66,-136.00
303.58,324.00
305.49,355.00
307.40,-211.00
309.31,-734.00
311.22,-194.00
313.12,393.00
315.03,624.00
316.93,32.00
318.83,565.00
320.73,97.00
322.63,485.00
324.53,216.00
326.43,329.00
328.33,-347.00
330.22,21.00
332.12,141.00
334.01,-232.00
335.90,139.00
337.79,-191.00
339.68,175.00
341.57,380.00
343.45,-206.00
345.34,-99.00
347.22,178.00
349.10,-87.00
350.98,78.00
352.86,-94.00
354.74,1363.00
356.62,32.00
358.50,581.00
360.37,-450.00
362.24,-560.00
364.12,-22.00
365.99,270.00
367.86,21.00
369.73,230.00
371.59,1300.00
373.46,513.00
375.33,-417.00
377.19,320.00
379.05,620.00
380.91,-493.00
382.77,199.00
384.63,1106.00
386.49,-311.00
388.35,-140.00
390.20,3.00
392.06,249.00
393.91,-51.00
395.76,586.00
397.61,679.00
399.46,780.00
401.31,201.00
403.15,953.00
405.00,1062.00
406.84,2004.00
408.69,1100.00
410.53,1697.00
412.37,2329.00
414.21,2091.00
416.05,2060.00
417.88,2850.00
419.72,1478.00
421.55,3366.00
423.39,3524.00
425.22,3337.00
427.05,2988.00
428.88,4719.00
430.71,4847.00
432.54,3209.00
434.36,4371.00
436.19,3243.00
438.01,4063.00
439.83,3405.00
441.65,3070.00
443.48,2789.00
445.29,2730.00
447.11,2599.00
448.93,1833.00
450.74,2148.00
452.56,1586.00
454.37,2174.00
456.18,1101.00
457.99,1721.00
459.80,1447.00
461.61,1426.00
463.42,1751.00
465.23,1374.00
467.03,1302.00
468.83,871.00
470.64,1574.00
472.44,840.00
474.24,1043.00
476.04,79.00
477.84,179.00
479.63,385.00
481.43,866.00
483.22,507.00
485.02,79.00
486.81,943.00
488.60,160.00
490.39,698.00
492.18,438.00
493.96,425.00
495.75,497.00
497.54,190.00
499.32,594.00
501.10,288.00
502.88,927.00
504.67,1441.00
506.45,766.00
508.22,659.00
510.00,249.00
511.78,702.00
513.55,1529.00
515.33,-27.00
517.10,608.00
518.87,523.00
520.64,1205.00
522.41,188.00
524.18,270.00
525.94,635.00
527.71,702.00
529.47,180.00
531.24,610.00
533.00,-192.00
534.76,477.00
536.52,443.00
538.28,1152.00
540.04,-7.00
541.80,-446.00
543.55,756.00
545.31,516.00
547.06,52.00
548.81,660.00
550.56,842.00
552.31,1058.00
554.06,231.00
555.81,745.00
557.56,-243.00
559.30,850.00
561.05,280.00
562.79,279.00
564.53,544.00
566.28,542.00
568.02,1297.00
569.75,370.00
571.49,175.00
573.23,540.00
574.97,1842.00
576.70,-28.00
578.43,102.00
580.17,516.00
581.90,692.00
583.63,53.00
585.36,842.00
587.09,-462.00
588.81,581.00
590.54,456.00
592.26,1308.00
593.99,348.00
595.71,718.00
597.43,480.00
599.15,493.00
600.87,466.00
602.59,244.00
604.31,954.00
606.02,371.00
607.74,565.00
609.45,319.00
611.17,300.00
612.88,450.00
614.59,88.00
616.30,1207.00
618.01,616.00
619.71,364.00
621.42,1106.00
623.13,351.00
624.83,800.00
626.53,-202.00
628.24,401.00
629.94,45.00
631.64,524.00
633.34,307.00
635.04,630.00
636.73,214.00
638.43,-45.00
640.12,375.00
641.82,669.00
643.51,313.00
645.20,278.00
646.89,223.00
648.58,107.00
650.27,976.00
651.96,863.00
653.65,836.00
655.33,-174.00
657.02,822.00
658.70,917.00
660.38,776.00
662.06,22.00
663.74,569.00
665.42,-301.00
667.10,1270.00
668.78,685.00
670.45,1027.00
672.13,716.00
673.80,397.00
675.48,953.00
677.15,1075.00
678.82,1023.00
680.49,663.00
682.16,313.00
683.83,291.00
685.49,555.00
687.16,190.00
688.82,604.00
690.49,129.00
692.15,1063.00
693.81,221.00
695.47,515.00
697.13,248.00
698.79,-167.00
700.45,295.00
702.11,838.00
703.76,473.00
705.42,-234.00
707.07,191.00
708.72,45.00
710.37,929.00
712.02,381.00
713.67,347.00
715.32,-108.00
716.97,771.00
718.62,929.00
720.26,582.00
721.91,469.00
723.55,692.00
725.19,449.00
726.84,162.00
728.48,184.00
730.12,567.00
731.75,762.00
733.39,1159.00
735.03,332.00
736.66,-134.00
738.30,265.00
739.93,512.00
741.57,578.00
743.20,-111.00
744.83,246.00
746.46,478.00
748.09,727.00
749.71,-333.00
751.34,632.00
752.97,761.00
754.59,535.00
756.22,348.00
757.84,479.00
759.46,798.00
761.08,928.00
762.70,182.00
764.32,802.00
765.94,263.00
767.56,297.00
769.17,16.00
770.79,540.00
772.40,-29.00
774.01,649.00
775.63,157.00
777.24,471.00
778.85,-284.00
780.46,1269.00
782.07,651.00
783.67,418.00
785.28,971.00
786.88,672.00
788.49,538.00
790.09,1250.00
791.70,545.00
793.30,870.00
794.90,263.00
796.50,402.00
798.10,48.00
799.69,913.00
801.29,398.00
802.89,724.00
804.48,660.00
806.08,270.00
807.67,1089.00
809.26,473.00
810.85,603.00
812.44,653.00
814.03,36.00
815.62,896.00
817.21,602.00
818.79,613.00
820.38,836.00
821.96,1044.00
823.55,631.00
825.13,927.00
826.71,1042.00
828.29,1025.00
829.87,686.00
831.45,771.00
833.03,1011.00
834.61,1176.00
836.18,1055.00
837.76,1924.00
839.33,1223.00
840.91,1852.00
842.48,998.00
844.05,900.00
845.62,1509.00
847.19,1403.00
848.76,1991.00
850.33,1560.00
851.90,1423.00
853.46,1357.00
855.03,2323.00
856.59,2467.00
858.15,2687.00
859.72,2609.00
861.28,4102.00
862.84,4628.00
864.40,5203.00
865.96,5959.00
867.52,8486.00
869.07,9982.00
870.63,14215.00
872.18,17671.00
873.74,20145.00
875.29,24839.00
876.84,27894.00
878.40,33991.00
879.95,38345.00
881.50,39081.00
883.04,42420.00
884.59,40795.00
886.14,39676.00
887.69,35552.00
889.23,32854.00
890.78,25870.00
892.32,25770.00
893.86,20540.00
895.40,17753.00
896.94,15154.00
898.48,12295.00
900.02,8752.00
901.56,8057.00
903.10,6953.00
904.63,5633.00
906.17,4275.00
907.70,3483.00
909.24,3313.00
910.77,3165.00
912.30,2798.00
913.83,2021.00
915.36,2475.00
916.89,2313.00
918.42,2159.00
919.95,1646.00
921.48,1415.00
923.00,1502.00
924.53,1357.00
926.05,1918.00
927.57,1919.00
929.10,1284.00
930.62,1020.00
932.14,1533.00
933.66,1243.00
935.18,2474.00
936.70,1334.00
938.21,1566.00
939.73,868.00
941.24,1052.00
942.76,124.00
944.27,1375.00
945.79,1408.00
947.30,814.00
948.81,1255.00
950.32,1119.00
951.83,1403.00
953.34,535.00
954.84,1115.00
956.35,565.00
957.86,1258.00
959.36,721.00
960.87,1636.00
962.37,378.00
963.87,407.00
965.37,414.00
966.88,1496.00
968.38,878.00
969.87,417.00
971.37,-1.00
972.87,986.00
974.37,495.00
975.86,1108.00
977.36,723.00
978.85,1256.00
980.35,394.00
981.84,1200.00
983.33,1329.00
984.82,1747.00
986.31,192.00
987.80,1043.00
989.29,715.00
990.77,747.00
992.26,1159.00
993.75,710.00
995.23,622.00
996.72,852.00
998.20,1720.00
999.68,1590.00
1001.16,1538.00
1002.64,1059.00
1004.12,820.00
1005.60,1276.00
1007.08,2084.00
1008.56,1205.00
1010.04,909.00
1011.51,1232.00
1012.99,1738.00
1014.46,1889.00
1015.93,1346.00
1017.41,914.00
1018.88,2279.00
1020.35,2492.00
1021.82,2908.00
1023.29,2166.00
1024.76,2132.00
1026.23,1705.00
1027.69,2540.00
1029.16,2480.00
1030.62,2760.00
1032.09,4556.00
1033.55,5091.00
1035.02,4616.00
1036.48,5409.00
1037.94,5910.00
1039.40,6184.00
1040.86,6341.00
1042.32,8579.00
1043.78,7815.00
1045.23,9219.00
1046.69,8257.00
1048.15,9454.00
1049.60,9016.00
1051.05,10749.00
1052.51,10316.00
1053.96,10581.00
1055.41,10865.00
1056.86,9511.00
1058.31,9250.00
1059.76,8068.00
1061.21,8448.00
1062.66,8492.00
1064.10,8710.00
1065.55,7032.00
1067.00,7098.00
1068.44,6690.00
1069.88,5253.00
1071.33,6746.00
1072.77,6046.00
1074.21,6396.00
1075.65,5623.00
1077.09,6432.00
1078.53,6059.00
1079.97,6071.00
1081.41,7191.00
1082.84,8158.00
1084.28,8639.00
1085.71,9075.00
1087.15,8252.00
1088.58,9180.00
1090.02,9597.00
1091.45,10267.00
1092.88,9945.00
1094.31,11128.00
1095.74,10899.00
1097.17,10960.00
1098.60,9146.00
1100.02,10138.00
1101.45,9612.00
1102.88,8992.00
1104.30,8661.00
1105.73,9229.00
1107.15,7570.00
1108.57,8048.00
1109.99,7615.00
1111.42,7295.00
1112.84,5890.00
1114.26,6299.00
1115.68,5563.00
1117.09,4707.00
1118.51,4448.00
1119.93,4390.00
1121.34,4701.00
1122.76,4428.00
1124.17,4155.00
1125.59,4493.00
1127.00,3153.00
1128.41,3060.00
1129.82,2592.00
1131.24,3033.00
1132.65,2707.00
1134.05,3416.00
1135.46,2522.00
1136.87,3661.00
1138.28,2166.00
1139.68,1541.00
1141.09,1929.00
1142.50,1705.00
1143.90,2551.00
1145.30,2438.00
1146.71,2514.00
1148.11,2914.00
1149.51,1310.00
1150.91,1719.00
1152.31,1735.00
1153.71,1777.00
1155.11,779.00
1156.50,1006.00
1157.90,228.00
1159.30,1771.00
1160.69,1301.00
1162.08,1753.00
1163.48,1492.00
1164.87,1338.00
1166.26,1376.00
1167.66,1415.00
1169.05,1457.00
1170.44,941.00
1171.83,425.00
1173.21,507.00
1174.60,1330.00
1175.99,479.00
1177.38,1466.00
1178.76,875.00
1180.15,1016.00
1181.53,1127.00
1182.92,1295.00
1184.30,1234.00
1185.68,1055.00
1187.06,740.00
1188.44,735.00
1189.82,1097.00
1191.20,366.00
1192.58,1134.00
1193.96,752.00
1195.34,385.00
1196.71,985.00
1198.09,623.00
1199.46,933.00
1200.84,1022.00
1202.21,738.00
1203.58,1336.00
1204.96,139.00
1206.33,150.00
1207.70,1491.00
1209.07,1106.00
1210.44,10.00
1211.81,655.00
1213.17,549.00
1214.54,1087.00
1215.91,1505.00
1217.27,801.00
1218.64,1387.00
1220.00,609.00
1221.37,884.00
1222.73,712.00
1224.09,1679.00
1225.45,1277.00
1226.82,1409.00
1228.18,941.00
1229.54,588.00
1230.89,1252.00
1232.25,1120.00
1233.61,1365.00
1234.97,1965.00
1236.32,2089.00
1237.68,1694.00
1239.03,1602.00
1240.39,1597.00
1241.74,1867.00
1243.09,1848.00
1244.45,2094.00
1245.80,2584.00
1247.15,1489.00
1248.50,1939.00
1249.85,1750.00
1251.20,1236.00
1252.54,1796.00
1253.89,2219.00
1255.24,2807.00
1256.58,2423.00
1257.93,2752.00
1259.27,2631.00
1260.62,4039.00
1261.96,4245.00
1263.30,3687.00
1264.64,3297.00
1265.98,4026.00
1267.33,4130.00
1268.67,3893.00
1270.00,4688.00
1271.34,5952.00
1272.68,5414.00
1274.02,6589.00
1275.35,4228.00
1276.69,6396.00
1278.03,4764.00
1279.36,5388.00
1280.69,5139.00
1282.03,4580.00
1283.36,3660.00
1284.69,3666.00
1286.02,4720.00
1287.35,3165.00
1288.68,4056.00
1290.01,2768.00
1291.34,2392.00
1292.67,2974.00
1294.00,2089.00
1295.32,2077.00
1296.65,2514.00
1297.97,1897.00
1299.30,2037.00
1300.62,2065.00
1301.94,2566.00
1303.27,2024.00
1304.59,2007.00
1305.91,2891.00
1307.23,1982.00
1308.55,1867.00
1309.87,1980.00
1311.19,1720.00
1312.51,1394.00
1313.82,1814.00
1315.14,1648.00
1316.46,655.00
1317.77,1293.00
1319.09,1083.00
1320.40,1044.00
1321.72,1068.00
1323.03,1281.00
1324.34,1485.00
1325.65,1412.00
1326.96,1514.00
1328.27,1764.00
1329.58,1482.00
1330.89,1926.00
1332.20,939.00
1333.51,614.00
1334.82,753.00
1336.12,1145.00
1337.43,1671.00
1338.73,317.00
1340.04,629.00
1341.34,1263.00
1342.65,1353.00
1343.95,1547.00
1345.25,938.00
1346.55,741.00
1347.85,1384.00
1349.15,1633.00
1350.45,898.00
1351.75,1954.00
1353.05,1604.00
1354.35,1326.00
1355.65,2206.00
1356.94,2899.00
1358.24,1962.00
1359.53,1685.00
1360.83,1707.00
1362.12,1652.00
1363.42,1348.00
1364.71,1944.00
1366.00,1382.00
1367.29,1648.00
1368.58,2822.00
1369.87,2132.00
1371.16,1816.00
1372.45,1343.00
1373.74,1616.00
1375.03,2574.00
1376.32,1718.00
1377.60,2012.00
1378.89,1776.00
1380.17,2142.00
1381.46,1548.00
1382.74,354.00
1384.03,2196.00
1385.31,1722.00
1386.59,2197.00
1387.87,2356.00
1389.15,2329.00
1390.43,2825.00
1391.71,2992.00
1392.99,1464.00
1394.27,2728.00
1395.55,2303.00
1396.83,2985.00
1398.11,2053.00
1399.38,3728.00
1400.66,2833.00
1401.93,3346.00
1403.21,3457.00
1404.48,3531.00
1405.75,3572.00
1407.03,2946.00
1408.30,3174.00
1409.57,2601.00
1410.84,3411.00
1412.11,3472.00
1413.38,3115.00
1414.65,4170.00
1415.92,3957.00
1417.19,4724.00
1418.46,4249.00
1419.72,5076.00
1420.99,4066.00
1422.25,4679.00
1423.52,5548.00
1424.78,5740.00
1426.05,4807.00
1427.31,6044.00
1428.57,6303.00
1429.84,6084.00
1431.10,6143.00
1432.36,8279.00
1433.62,7940.00
1434.88,7118.00
1436.14,8463.00
1437.40,8409.00
1438.65,9289.00
1439.91,10003.00
1441.17,10727.00
1442.43,11315.00
1443.68,11530.00
1444.94,10523.00
1446.19,12457.00
1447.44,14091.00
1448.70,12931.00
1449.95,13338.00
1451.20,14037.00
1452.46,14162.00
1453.71,13864.00
1454.96,14067.00
1456.21,15009.00
1457.46,13731.00
1458.71,11504.00
1459.95,15494.00
1461.20,12355.00
1462.45,13135.00
1463.70,11625.00
1464.94,12425.00
1466.19,11254.00
1467.43,10515.00
1468.68,10515.00
1469.92,10384.00
1471.16,10439.00
1472.41,10713.00
1473.65,8278.00
1474.89,8939.00
1476.13,8995.00
1477.37,8601.00
1478.61,8147.00
1479.85,8257.00
1481.09,8046.00
1482.33,7486.00
1483.57,7097.00
1484.80,6808.00
1486.04,7085.00
1487.28,7418.00
1488.51,7517.00
1489.75,6174.00
1490.98,6174.00
1492.21,6098.00
1493.45,5351.00
1494.68,4834.00
1495.91,4950.00
1497.14,3928.00
1498.37,4468.00
1499.61,4047.00
1500.84,4194.00
1502.06,3638.00
1503.29,4368.00
1504.52,3571.00
1505.75,3731.00
1506.98,3513.00
1508.20,3095.00
1509.43,3694.00
1510.66,2451.00
1511.88,2987.00
1513.11,2920.00
1514.33,3020.00
1515.55,2083.00
1516.78,2334.00
1518.00,1738.00
1519.22,1191.00
1520.44,1893.00
1521.66,2048.00
1522.88,1474.00
1524.10,1822.00
1525.32,838.00
1526.54,2259.00
1527.76,2446.00
1528.98,1998.00
1530.19,1420.00
1531.41,1619.00
1532.63,2103.00
1533.84,780.00
1535.06,2579.00
1536.27,1621.00
1537.48,1873.00
1538.70,1298.00
1539.91,2011.00
1541.12,825.00
1542.33,1080.00
1543.55,1434.00
1544.76,928.00
1545.97,1168.00
1547.18,989.00
1548.39,777.00
1549.59,1125.00
1550.80,743.00
1552.01,298.00
1553.22,-60.00
1554.42,790.00
1555.63,620.00
1556.84,1520.00
1558.04,1147.00
1559.24,1642.00
1560.45,-103.00
1561.65,466.00
1562.86,50.00
1564.06,329.00
1565.26,-10.00
1566.46,745.00
1567.66,974.00
1568.86,1396.00
1570.06,21.00
1571.26,269.00
1572.46,923.00
1573.66,811.00
1574.86,-1.00
1576.05,432.00
1577.25,135.00
1578.45,1023.00
1579.64,696.00
1580.84,71.00
1582.03,748.00
1583.23,162.00
1584.42,984.00
1585.61,213.00
1586.81,879.00
1588.00,1229.00
1589.19,914.00
1590.38,537.00
1591.57,445.00
1592.76,355.00
1593.95,1131.00
1595.14,473.00
1596.33,839.00
1597.52,1131.00
1598.71,759.00
1599.90,730.00
1601.08,793.00
1602.27,189.00
1603.45,575.00
1604.64,906.00
1605.83,306.00
1607.01,222.00
1608.19,351.00
1609.38,490.00
1610.56,541.00
1611.74,253.00
1612.92,366.00
1614.11,855.00
1615.29,-145.00
1616.47,-296.00
1617.65,866.00
1618.83,449.00
1620.01,-274.00
1621.18,163.00
1622.36,656.00
1623.54,595.00
1624.72,586.00
1625.89,831.00
1627.07,-268.00
1628.25,256.00
1629.42,70.00
1630.60,448.00
1631.77,-120.00
1632.94,-44.00
1634.12,427.00
1635.29,83.00
1636.46,666.00
1637.63,121.00
1638.80,171.00
1639.98,-255.00
1641.15,51.00
1642.32,16.00
1643.49,142.00
1644.65,767.00
1645.82,224.00
1646.99,447.00
1648.16,495.00
1649.33,519.00
1650.49,-338.00
1651.66,-159.00
1652.82,117.00
1653.99,376.00
1655.15,-677.00
1656.32,156.00
1657.48,-507.00
1658.65,576.00
1659.81,184.00
1660.97,342.00
1662.13,-83.00
1663.29,-234.00
1664.45,259.00
1665.62,-316.00
1666.78,861.00
1667.94,-42.00
1669.09,90.00
1670.25,183.00
1671.41,642.00
1672.57,120.00
1673.73,-135.00
1674.88,98.00
1676.04,518.00
1677.20,-487.00
1678.35,-55.00
1679.51,623.00
1680.66,180.00
1681.82,653.00
1682.97,-270.00
1684.12,202.00
1685.27,-702.00
1686.43,-389.00
1687.58,345.00
1688.73,-263.00
1689.88,-510.00
1691.03,520.00
1692.18,692.00
1693.33,116.00
1694.48,346.00
1695.63,3.00
1696.78,-178.00
1697.93,59.00
1699.07,55.00
1700.22,-132.00
1701.37,312.00
1702.51,331.00
1703.66,-41.00
1704.80,128.00
1705.95,-450.00
1707.09,-318.00
1708.24,-793.00
1709.38,240.00
1710.52,323.00
1711.67,342.00
1712.81,-201.00
1713.95,718.00
1715.09,164.00
1716.23,158.00
1717.37,443.00
1718.51,1067.00
1719.65,696.00
1720.79,617.00
1721.93,-196.00
1723.07,1379.00
1724.20,-401.00
1725.34,337.00
1726.48,309.00
1727.62,-169.00
1728.75,-141.00
1729.89,309.00
1731.02,719.00
1732.16,661.00
1733.29,-7.00
1734.43,389.00
1735.56,168.00
1736.69,649.00
1737.82,-312.00
1738.96,84.00
1740.09,252.00
1741.22,-516.00
1742.35,260.00
1743.48,-566.00
1744.61,375.00
1745.74,429.00
1746.87,63.00
1748.00,106.00
1749.13,-40.00
1750.25,415.00
1751.38,-163.00
1752.51,41.00
1753.64,-297.00
1754.76,-171.00
1755.89,198.00
1757.01,315.00
1758.14,803.00
1759.26,46.00
1760.39,510.00
1761.51,463.00
1762.63,470.00
1763.76,302.00
1764.88,238.00
1766.00,-6.00
1767.12,-112.00
1768.24,1039.00
1769.37,774.00
1770.49,347.00
1771.61,-189.00
1772.73,696.00
1773.85,2.00
1774.96,-439.00
1776.08,75.00
1777.20,225.00
1778.32,-394.00
1779.44,15.00
1780.55,112.00
1781.67,-761.00
1782.78,-153.00
1783.90,357.00
1785.01,111.00
1786.13,-7.00
1787.24,-52.00
1788.36,-1007.00
1789.47,218.00
1790.58,-232.00
1791.70,127.00
1792.81,-224.00
1793.92,417.00
1795.03,66.00
1796.14,683.00
1797.26,-285.00
1798.37,-122.00
1799.48,-381.00
1800.58,514.00
1801.69,-365.00
1802.80,66.00
1803.91,-320.00
1805.02,68.00
1806.13,91.00
1807.23,538.00
1808.34,70.00
1809.45,687.00
1810.55,753.00
1811.66,-128.00
1812.76,391.00
1813.87,233.00
1814.97,587.00
1816.08,212.00
1817.18,115.00
1818.28,224.00
1819.39,251.00
1820.49,-165.00
1821.59,361.00
1822.69,-298.00
1823.79,451.00
1824.90,418.00
1826.00,799.00
1827.10,344.00
1828.20,88.00
1829.30,1095.00
1830.39,5.00
1831.49,204.00
1832.59,-148.00
1833.69,-885.00
1834.79,-57.00
1835.88,181.00
1836.98,-278.00
1838.08,245.00
1839.17,-1.00
1840.27,-243.00
1841.36,-448.00
1842.46,943.00
1843.55,-341.00
1844.65,312.00
1845.74,492.00
1846.83,261.00
1847.93,551.00
1849.02,165.00
1850.11,-126.00
1851.20,-42.00
1852.30,-351.00
1853.39,-212.00
1854.48,143.00
1855.57,-107.00
1856.66,-600.00
1857.75,363.00
1858.84,544.00
1859.93,331.00
1861.01,253.00
1862.10,368.00
1863.19,192.00
1864.28,2.00
1865.37,349.00
1866.45,683.00
1867.54,-293.00
1868.62,378.00
1869.71,397.00
1870.79,617.00
1871.88,-268.00
1872.96,77.00
1874.05,-290.00
1875.13,183.00
1876.22,-214.00
1877.30,-202.00
1878.38,-3.00
1879.46,-255.00
1880.55,574.00
1881.63,-91.00
1882.71,-352.00
1883.79,-207.00
1884.87,408.00
1885.95,-420.00
1887.03,266.00
1888.11,-447.00
1889.19,-274.00
1890.27,25.00
1891.35,70.00
1892.42,351.00
1893.50,-236.00
1894.58,-522.00
1895.66,255.00
1896.73,-170.00
1897.81,-766.00
1898.89,-617.00
1899.96,-242.00
1901.04,694.00
1902.11,-97.00
1903.19,111.00
1904.26,-242.00
1905.33,-146.00
1906.41,494.00
1907.48,737.00
1908.55,359.00
1909.63,419.00
1910.70,124.00
1911.77,578.00
1912.84,-313.00
1913.91,314.00
1914.98,157.00
1916.05,315.00
1917.12,-181.00
1918.19,-1236.00
1919.26,389.00
1920.33,-94.00
1921.40,-247.00
1922.47,-486.00
1923.54,518.00
1924.60,135.00
1925.67,-249.00
1926.74,-68.00
1927.80,511.00
1928.87,-893.00
1929.94,-127.00
1931.00,657.00
1932.07,422.00
1933.13,162.00
1934.20,-125.00
1935.26,-91.00
1936.33,83.00
1937.39,-347.00
1938.45,44.00
1939.52,189.00
1940.58,-477.00
1941.64,79.00
1942.70,-131.00
1943.76,539.00
1944.83,175.00
1945.89,335.00
1946.95,184.00
1948.01,332.00
1949.07,627.00
1950.13,-328.00
1951.19,255.00
1952.25,-324.00
