ENLIGHTEN Version,1.6.8
Measurement ID,20190304-193649-405000-unknown
Serial Number,unknown
Label,2019-03-04 19:54:30 Glucose Solution 1x5s Spectrum
Integration Time,200
Timestamp,2019-03-04 19:36:49.405000
Note,
Temperature,-99
CCD C0,535.4879760742188
CCD C1,0.12055999785661697
CCD C2,-1.2115999652451137e-06
CCD C3,-8.375500293311688e-09
CCD Offset,0
CCD Gain,1.9
Laser Wavelength,532.0
Laser Enable,False
Laser Power,100.0
Laser Temperature,-99
Pixel Count,1024

Wavenumber,Processed
122.44,23082.00
126.64,23102.00
130.84,23021.00
135.04,23032.00
139.24,22980.00
143.43,22929.00
147.63,22942.00
151.82,22931.00
156.01,22784.00
160.20,22785.00
164.38,22713.00
168.57,22720.00
172.75,22628.00
176.93,22610.00
181.10,22528.00
185.28,22485.00
189.45,22470.00
193.63,22440.00
197.80,22362.00
201.96,22396.00
206.13,22344.00
210.29,22263.00
214.45,22208.00
218.61,22217.00
222.77,22168.00
226.93,22135.00
231.08,22075.00
235.23,22020.00
239.38,22005.00
243.53,21900.00
247.68,21969.00
251.82,21972.00
255.96,21942.00
260.10,21819.00
264.24,21824.00
268.38,21790.00
272.51,21760.00
276.64,21813.00
280.77,21865.00
284.90,21800.00
289.03,21813.00
293.15,21634.00
297.27,21771.00
301.39,21716.00
305.51,21629.00
309.63,21680.00
313.74,21653.00
317.85,21654.00
321.96,21694.00
326.07,21715.00
330.18,21684.00
334.28,21646.00
338.38,21646.00
342.48,21623.00
346.58,21622.00
350.68,21703.00
354.77,21615.00
358.86,21690.00
362.95,21635.00
367.04,21674.00
371.13,21551.00
375.21,21515.00
379.30,21628.00
383.38,21473.00
387.45,21500.00
391.53,21425.00
395.60,21412.00
399.68,21386.00
403.75,21336.00
407.81,21335.00
411.88,21160.00
415.94,21026.00
420.01,20971.00
424.07,20860.00
428.13,20765.00
432.18,20585.00
436.24,20564.00
440.29,20372.00
444.34,20287.00
448.39,20100.00
452.43,19852.00
456.48,19689.00
460.52,19573.00
464.56,19359.00
468.60,19151.00
472.63,18916.00
476.67,18682.00
480.70,18563.00
484.73,18197.00
488.76,17980.00
492.78,17819.00
496.81,17534.00
500.83,17296.00
504.85,17006.00
508.87,16795.00
512.89,16471.00
516.90,16227.00
520.91,15981.00
524.92,15634.00
528.93,15371.00
532.94,15097.00
536.94,14777.00
540.94,14447.00
544.94,14240.00
548.94,13913.00
552.94,13720.00
556.93,13374.00
560.92,13136.00
564.91,12851.00
568.90,12610.00
572.89,12323.00
576.87,12111.00
580.85,11797.00
584.83,11622.00
588.81,11319.00
592.79,11087.00
596.76,10842.00
600.73,10601.00
604.70,10418.00
608.67,10117.00
612.64,9906.00
616.60,9688.00
620.56,9437.00
624.52,9222.00
628.48,9005.00
632.44,8824.00
636.39,8649.00
640.34,8446.00
644.29,8245.00
648.24,8080.00
652.19,7884.00
656.13,7668.00
660.07,7495.00
664.01,7333.00
667.95,7165.00
671.89,7028.00
675.82,6780.00
679.75,6618.00
683.68,6481.00
687.61,6356.00
691.53,6214.00
695.46,6037.00
699.38,5870.00
703.30,5803.00
707.22,5629.00
711.13,5504.00
715.05,5397.00
718.96,5289.00
722.87,5210.00
726.78,5108.00
730.68,4993.00
734.59,4862.00
738.49,4754.00
742.39,4686.00
746.28,4618.00
750.18,4503.00
754.07,4455.00
757.97,4391.00
761.85,4336.00
765.74,4342.00
769.63,4336.00
773.51,4281.00
777.39,4287.00
781.27,4334.00
785.15,4403.00
789.03,4388.00
792.90,4446.00
796.77,4552.00
800.64,4625.00
804.51,4695.00
808.37,4767.00
812.24,4832.00
816.10,4882.00
819.96,4963.00
823.81,5086.00
827.67,5124.00
831.52,5255.00
835.37,5337.00
839.22,5526.00
843.07,5673.00
846.92,5811.00
850.76,5866.00
854.60,5957.00
858.44,5900.00
862.28,5891.00
866.11,5891.00
869.94,5799.00
873.78,5657.00
877.60,5635.00
881.43,5580.00
885.26,5539.00
889.08,5576.00
892.90,5656.00
896.72,5715.00
900.54,5923.00
904.35,6054.00
908.16,6240.00
911.98,6473.00
915.78,6639.00
919.59,6823.00
923.40,6996.00
927.20,7076.00
931.00,7094.00
934.80,7093.00
938.60,7015.00
942.39,6865.00
946.18,6639.00
949.97,6373.00
953.76,6092.00
957.55,5876.00
961.33,5591.00
965.12,5342.00
968.90,5097.00
972.68,4903.00
976.45,4643.00
980.23,4393.00
984.00,4183.00
987.77,3990.00
991.54,3815.00
995.31,3552.00
999.07,3427.00
1002.83,3247.00
1006.59,3104.00
1010.35,2998.00
1014.11,2912.00
1017.86,2779.00
1021.62,2677.00
1025.37,2588.00
1029.11,2525.00
1032.86,2451.00
1036.60,2422.00
1040.35,2330.00
1044.09,2287.00
1047.83,2237.00
1051.56,2200.00
1055.30,2153.00
1059.03,2099.00
1062.76,2102.00
1066.49,2073.00
1070.21,2058.00
1073.94,1999.00
1077.66,1984.00
1081.38,1952.00
1085.10,1966.00
1088.81,1927.00
1092.53,1957.00
1096.24,1946.00
1099.95,1956.00
1103.66,1899.00
1107.36,1932.00
1111.07,1911.00
1114.77,1888.00
1118.47,1891.00
1122.17,1921.00
1125.86,1904.00
1129.56,1907.00
1133.25,1887.00
1136.94,1936.00
1140.63,1855.00
1144.31,1902.00
1148.00,1901.00
1151.68,1887.00
1155.36,1910.00
1159.04,1910.00
1162.71,1934.00
1166.38,1937.00
1170.06,1902.00
1173.73,1948.00
1177.39,1908.00
1181.06,1943.00
1184.72,1919.00
1188.38,1931.00
1192.04,1904.00
1195.70,1897.00
1199.36,1897.00
1203.01,1891.00
1206.66,1848.00
1210.31,1829.00
1213.96,1830.00
1217.60,1809.00
1221.25,1767.00
1224.89,1790.00
1228.53,1735.00
1232.17,1758.00
1235.80,1737.00
1239.43,1735.00
1243.07,1712.00
1246.69,1688.00
1250.32,1687.00
1253.95,1670.00
1257.57,1652.00
1261.19,1671.00
1264.81,1674.00
1268.43,1654.00
1272.04,1671.00
1275.66,1650.00
1279.27,1645.00
1282.88,1618.00
1286.48,1693.00
1290.09,1684.00
1293.69,1707.00
1297.29,1663.00
1300.89,1648.00
1304.49,1703.00
1308.08,1706.00
1311.68,1743.00
1315.27,1703.00
1318.86,1671.00
1322.44,1684.00
1326.03,1705.00
1329.61,1684.00
1333.19,1730.00
1336.77,1688.00
1340.35,1677.00
1343.92,1701.00
1347.49,1698.00
1351.06,1722.00
1354.63,1720.00
1358.20,1726.00
1361.76,1710.00
1365.33,1751.00
1368.89,1715.00
1372.45,1709.00
1376.00,1743.00
1379.56,1744.00
1383.11,1737.00
1386.66,1710.00
1390.21,1737.00
1393.76,1773.00
1397.30,1722.00
1400.84,1705.00
1404.38,1756.00
1407.92,1760.00
1411.46,1771.00
1414.99,1755.00
1418.52,1796.00
1422.06,1769.00
1425.58,1807.00
1429.11,1784.00
1432.63,1796.00
1436.16,1773.00
1439.68,1813.00
1443.19,1820.00
1446.71,1832.00
1450.23,1782.00
1453.74,1827.00
1457.25,1788.00
1460.76,1830.00
1464.26,1828.00
1467.77,1829.00
1471.27,1849.00
1474.77,1837.00
1478.27,1832.00
1481.76,1882.00
1485.26,1877.00
1488.75,1885.00
1492.24,1885.00
1495.73,1863.00
1499.21,1872.00
1502.70,1906.00
1506.18,1906.00
1509.66,1932.00
1513.14,1921.00
1516.61,1936.00
1520.09,1957.00
1523.56,1938.00
1527.03,1921.00
1530.50,1946.00
1533.96,1984.00
1537.43,1944.00
1540.89,1967.00
1544.35,1963.00
1547.81,2001.00
1551.26,2001.00
1554.72,2003.00
1558.17,2009.00
1561.62,2027.00
1565.06,2019.00
1568.51,2016.00
1571.95,2016.00
1575.40,2054.00
1578.84,2043.00
1582.27,2026.00
1585.71,2075.00
1589.14,2062.00
1592.57,2099.00
1596.00,2058.00
1599.43,2062.00
1602.86,2115.00
1606.28,2077.00
1609.70,2091.00
1613.12,2115.00
1616.54,2096.00
1619.95,2134.00
1623.37,2111.00
1626.78,2138.00
1630.19,2138.00
1633.60,2128.00
1637.00,2164.00
1640.41,2162.00
1643.81,2176.00
1647.21,2187.00
1650.60,2155.00
1654.00,2187.00
1657.39,2200.00
1660.78,2188.00
1664.17,2147.00
1667.56,2082.00
1670.95,2126.00
1674.33,2221.00
1677.71,2236.00
1681.09,2238.00
1684.47,2261.00
1687.84,2257.00
1691.22,2256.00
1694.59,2303.00
1697.96,2289.00
1701.32,2314.00
1704.69,2324.00
1708.05,2299.00
1711.41,2335.00
1714.77,2346.00
1718.13,2342.00
1721.49,2352.00
1724.84,2350.00
1728.19,2360.00
1731.54,2371.00
1734.89,2402.00
1738.23,2381.00
1741.57,2378.00
1744.92,2402.00
1748.26,2396.00
1751.59,2455.00
1754.93,2409.00
1758.26,2451.00
1761.59,2451.00
1764.92,2487.00
1768.25,2470.00
1771.57,2529.00
1774.90,2544.00
1778.22,2530.00
1781.54,2538.00
1784.85,2538.00
1788.17,2534.00
1791.48,2571.00
1794.79,2589.00
1798.10,2585.00
1801.41,2587.00
1804.71,2603.00
1808.02,2580.00
1811.32,2645.00
1814.62,2624.00
1817.91,2645.00
1821.21,2624.00
1824.50,2646.00
1827.79,2603.00
1831.08,2681.00
1834.37,2684.00
1837.65,2705.00
1840.94,2677.00
1844.22,2694.00
1847.50,2692.00
1850.77,2730.00
1854.05,2699.00
1857.32,2734.00
1860.59,2696.00
1863.86,2694.00
1867.13,2776.00
1870.39,2739.00
1873.66,2756.00
1876.92,2753.00
1880.18,2763.00
1883.43,2808.00
1886.69,2800.00
1889.94,2781.00
1893.19,2796.00
1896.44,2836.00
1899.69,2821.00
1902.93,2795.00
1906.18,2848.00
1909.42,2878.00
1912.66,2855.00
1915.89,2866.00
1919.13,2843.00
1922.36,2844.00
1925.59,2874.00
1928.82,2884.00
1932.05,2844.00
1935.27,2870.00
1938.50,2823.00
1941.72,2844.00
1944.94,2861.00
1948.15,2850.00
1951.37,2865.00
1954.58,2830.00
1957.79,2876.00
1961.00,2829.00
1964.21,2883.00
1967.41,2836.00
1970.62,2846.00
1973.82,2838.00
1977.02,2863.00
1980.21,2848.00
1983.41,2819.00
1986.60,2841.00
1989.79,2808.00
1992.98,2798.00
1996.17,2844.00
1999.35,2886.00
2002.54,2865.00
2005.72,2821.00
2008.90,2832.00
2012.07,2842.00
2015.25,2844.00
2018.42,2833.00
2021.59,2848.00
2024.76,2849.00
2027.93,2832.00
2031.09,2819.00
2034.26,2853.00
2037.42,2842.00
2040.58,2852.00
2043.74,2823.00
2046.89,2813.00
2050.04,2813.00
2053.19,2791.00
2056.34,2802.00
2059.49,2808.00
2062.64,2825.00
2065.78,2810.00
2068.92,2855.00
2072.06,2835.00
2075.20,2839.00
2078.33,2819.00
2081.47,2791.00
2084.60,2793.00
2087.73,2777.00
2090.85,2787.00
2093.98,2774.00
2097.10,2814.00
2100.22,2802.00
2103.34,2803.00
2106.46,2834.00
2109.57,2808.00
2112.69,2825.00
2115.80,2776.00
2118.91,2839.00
2122.02,2842.00
2125.12,2800.00
2128.22,2863.00
2131.33,2808.00
2134.42,2827.00
2137.52,2861.00
2140.62,2850.00
2143.71,2836.00
2146.80,2844.00
2149.89,2836.00
2152.98,2858.00
2156.06,2853.00
2159.15,2882.00
2162.23,2874.00
2165.31,2905.00
2168.39,2867.00
2171.46,2914.00
2174.54,2863.00
2177.61,2874.00
2180.68,2857.00
2183.74,2888.00
2186.81,2875.00
2189.87,2874.00
2192.94,2874.00
2195.99,2922.00
2199.05,2933.00
2202.11,2899.00
2205.16,2918.00
2208.21,2918.00
2211.26,2950.00
2214.31,2959.00
2217.36,2916.00
2220.40,2949.00
2223.44,2954.00
2226.48,2952.00
2229.52,2950.00
2232.56,2981.00
2235.59,3013.00
2238.62,2993.00
2241.65,3018.00
2244.68,2994.00
2247.71,3025.00
2250.73,3034.00
2253.75,3055.00
2256.77,3079.00
2259.79,3082.00
2262.81,3076.00
2265.82,3125.00
2268.83,3121.00
2271.84,3163.00
2274.85,3130.00
2277.86,3184.00
2280.86,3164.00
2283.86,3195.00
2286.86,3250.00
2289.86,3199.00
2292.86,3280.00
2295.85,3288.00
2298.84,3315.00
2301.83,3392.00
2304.82,3389.00
2307.81,3455.00
2310.79,3449.00
2313.77,3525.00
2316.76,3577.00
2319.73,3604.00
2322.71,3599.00
2325.68,3695.00
2328.66,3719.00
2331.63,3768.00
2334.60,3820.00
2337.56,3854.00
2340.53,3827.00
2343.49,3896.00
2346.45,3903.00
2349.41,3953.00
2352.37,3926.00
2355.32,3897.00
2358.27,3962.00
2361.22,3964.00
2364.17,3916.00
2367.12,3891.00
2370.06,3882.00
2373.01,3833.00
2375.95,3810.00
2378.89,3748.00
2381.82,3683.00
2384.76,3691.00
2387.69,3683.00
2390.62,3639.00
2393.55,3611.00
2396.48,3526.00
2399.40,3497.00
2402.33,3485.00
2405.25,3494.00
2408.17,3440.00
2411.09,3453.00
2414.00,3454.00
2416.91,3393.00
2419.82,3404.00
2422.73,3353.00
2425.64,3324.00
2428.55,3297.00
2431.45,3327.00
2434.35,3337.00
2437.25,3339.00
2440.15,3322.00
2443.04,3307.00
2445.94,3320.00
2448.83,3311.00
2451.72,3298.00
2454.61,3287.00
2457.49,3274.00
2460.38,3303.00
2463.26,3280.00
2466.14,3290.00
2469.02,3299.00
2471.89,3266.00
2474.77,3268.00
2477.64,3263.00
2480.51,3299.00
2483.38,3303.00
2486.24,3359.00
2489.11,3360.00
2491.97,3506.00
2494.83,3581.00
2497.69,3732.00
2500.54,3826.00
2503.40,3886.00
2506.25,3858.00
2509.10,3717.00
2511.95,3662.00
2514.79,3517.00
2517.64,3507.00
2520.48,3459.00
2523.32,3508.00
2526.16,3573.00
2529.00,3517.00
2531.83,3561.00
2534.66,3572.00
2537.50,3609.00
2540.32,3609.00
2543.15,3575.00
2545.98,3559.00
2548.80,3608.00
2551.62,3645.00
2554.44,3716.00
2557.26,3740.00
2560.07,3837.00
2562.88,3883.00
2565.69,3939.00
2568.50,3962.00
2571.31,4070.00
2574.12,4120.00
2576.92,4146.00
2579.72,4138.00
2582.52,4138.00
2585.32,4068.00
2588.11,3994.00
2590.91,3981.00
2593.70,3941.00
2596.49,3880.00
2599.27,3869.00
2602.06,3882.00
2604.84,3845.00
2607.63,3848.00
2610.41,3827.00
2613.18,3814.00
2615.96,3771.00
2618.73,3707.00
2621.51,3690.00
2624.28,3590.00
2627.04,3577.00
2629.81,3527.00
2632.57,3501.00
2635.34,3511.00
2638.10,3487.00
2640.85,3501.00
2643.61,3546.00
2646.36,3552.00
2649.12,3620.00
2651.87,3612.00
2654.62,3681.00
2657.36,3727.00
2660.11,3706.00
2662.85,3664.00
2665.59,3597.00
2668.33,3598.00
2671.07,3541.00
2673.80,3541.00
2676.53,3531.00
2679.26,3552.00
2681.99,3536.00
2684.72,3495.00
2687.45,3486.00
2690.17,3466.00
2692.89,3455.00
2695.61,3470.00
2698.33,3487.00
2701.04,3459.00
2703.76,3460.00
2706.47,3466.00
2709.18,3455.00
2711.88,3393.00
2714.59,3321.00
2717.29,3373.00
2719.99,3400.00
2722.69,3381.00
2725.39,3414.00
2728.09,3514.00
2730.78,3567.00
2733.47,3645.00
2736.16,3732.00
2738.85,3791.00
2741.54,3801.00
2744.22,3829.00
2746.90,3981.00
2749.58,4114.00
2752.26,4378.00
2754.94,4638.00
2757.61,4857.00
2760.29,4941.00
2762.96,4904.00
2765.63,4786.00
2768.29,4602.00
2770.96,4423.00
2773.62,4229.00
2776.28,4132.00
2778.94,4023.00
2781.60,3871.00
2784.25,3852.00
2786.90,3839.00
2789.56,3909.00
2792.20,4032.00
2794.85,4121.00
2797.50,4232.00
2800.14,4251.00
2802.78,4372.00
2805.42,4397.00
2808.06,4344.00
2810.69,4224.00
2813.33,4099.00
2815.96,4028.00
2818.59,4018.00
2821.22,4048.00
2823.84,4002.00
2826.47,3962.00
2829.09,3951.00
2831.71,3935.00
2834.33,3953.00
2836.94,3934.00
2839.56,3886.00
2842.17,3806.00
2844.78,3696.00
2847.39,3582.00
2849.99,3539.00
2852.60,3562.00
2855.20,3520.00
2857.80,3481.00
2860.40,3461.00
2863.00,3425.00
2865.59,3379.00
2868.19,3421.00
2870.78,3428.00
2873.37,3439.00
2875.95,3355.00
2878.54,3451.00
2881.12,3423.00
2883.70,3465.00
2886.28,3442.00
2888.86,3467.00
2891.44,3489.00
2894.01,3552.00
2896.58,3639.00
2899.15,3732.00
2901.72,3826.00
2904.28,3884.00
2906.85,3926.00
2909.41,3919.00
2911.97,3893.00
2914.53,3908.00
2917.08,3941.00
2919.64,3899.00
2922.19,3859.00
2924.74,3759.00
2927.29,3656.00
2929.84,3647.00
2932.38,3619.00
2934.92,3683.00
2937.46,3738.00
2940.00,3774.00
2942.54,3776.00
2945.07,3818.00
2947.61,3837.00
2950.14,3852.00
2952.67,3857.00
2955.19,3871.00
2957.72,3799.00
2960.24,3742.00
2962.76,3693.00
2965.28,3703.00
2967.80,3643.00
2970.32,3623.00
2972.83,3669.00
2975.34,3594.00
2977.85,3614.00
2980.36,3598.00
2982.87,3574.00
2985.37,3589.00
2987.87,3623.00
2990.37,3605.00
2992.87,3588.00
2995.37,3643.00
2997.86,3670.00
3000.35,3698.00
3002.84,3657.00
3005.33,3657.00
3007.82,3624.00
3010.30,3647.00
3012.79,3636.00
3015.27,3630.00
3017.75,3624.00
3020.22,3639.00
3022.70,3598.00
3025.17,3615.00
3027.64,3632.00
3030.11,3599.00
3032.58,3609.00
3035.05,3600.00
3037.51,3631.00
3039.97,3607.00
3042.43,3583.00
3044.89,3596.00
3047.34,3616.00
3049.80,3609.00
3052.25,3575.00
3054.70,3546.00
3057.15,3545.00
3059.60,3552.00
3062.04,3584.00
3064.48,3578.00
3066.92,3594.00
3069.36,3557.00
3071.80,3569.00
3074.23,3575.00
3076.67,3603.00
3079.10,3569.00
3081.53,3594.00
3083.95,3577.00
3086.38,3560.00
3088.80,3547.00
3091.22,3573.00
3093.64,3546.00
3096.06,3538.00
3098.48,3499.00
3100.89,3541.00
3103.30,3581.00
3105.71,3548.00
3108.12,3586.00
3110.52,3683.00
3112.93,3655.00
3115.33,3685.00
3117.73,3689.00
3120.13,3639.00
3122.53,3628.00
3124.92,3640.00
3127.31,3681.00
3129.70,3654.00
3132.09,3696.00
3134.48,3667.00
3136.86,3638.00
3139.25,3649.00
3141.63,3702.00
3144.01,3778.00
3146.38,3784.00
3148.76,3798.00
3151.13,3843.00
3153.50,4002.00
3155.87,4144.00
3158.24,4217.00
3160.61,4160.00
3162.97,4029.00
3165.33,3960.00
3167.69,3865.00
3170.05,3872.00
3172.41,3773.00
3174.76,3681.00
3177.11,3556.00
3179.47,3498.00
3181.81,3385.00
3184.16,3402.00
3186.51,3430.00
3188.85,3458.00
3191.19,3550.00
3193.53,3599.00
3195.86,3764.00
3198.20,3785.00
3200.53,3803.00
3202.86,3725.00
3205.19,3685.00
3207.52,3680.00
3209.85,3772.00
3212.17,3841.00
3214.49,3804.00
3216.81,3731.00
3219.13,3597.00
3221.45,3542.00
3223.76,3466.00
3226.07,3398.00
3228.38,3263.00
3230.69,3197.00
3233.00,3121.00
3235.30,3110.00
3237.61,3054.00
3239.91,3042.00
3242.21,2984.00
3244.50,2991.00
3246.80,2992.00
3249.09,2997.00
3251.38,3005.00
3253.67,2969.00
3255.96,2954.00
3258.24,2880.00
3260.53,2861.00
3262.81,2810.00
3265.09,2806.00
3267.37,2786.00
3269.64,2756.00
3271.92,2734.00
3274.19,2764.00
3276.46,2749.00
3278.73,2769.00
3281.00,2787.00
3283.26,2787.00
3285.52,2810.00
3287.78,2825.00
3290.04,2856.00
3292.30,2871.00
3294.55,2878.00
3296.81,2935.00
3299.06,2924.00
3301.31,2977.00
3303.56,3007.00
3305.80,3054.00
3308.04,3094.00
3310.29,3145.00
3312.53,3218.00
3314.76,3265.00
3317.00,3354.00
3319.23,3398.00
3321.47,3493.00
3323.70,3527.00
3325.93,3614.00
3328.15,3691.00
3330.38,3782.00
3332.60,3861.00
3334.82,3978.00
3337.04,4065.00
3339.26,4155.00
3341.47,4211.00
3343.68,4316.00
3345.90,4313.00
3348.11,4368.00
3350.31,4452.00
3352.52,4463.00
3354.72,4477.00
3356.92,4509.00
3359.12,4518.00
3361.32,4510.00
3363.52,4456.00
3365.71,4463.00
3367.91,4474.00
3370.10,4421.00
3372.28,4401.00
3374.47,4359.00
3376.66,4395.00
3378.84,4311.00
