ENLIGHTEN Version,1.6.8
Measurement ID,20190528-082252-426415-WP-00391
Serial Number,WP-00391
Label,Glucose 100g per L
Integration Time,2000
Timestamp,2019-05-28 08:22:52.426415
Note,
Temperature,-99
CCD C0,789.0726928710938
CCD C1,0.16069164872169495
CCD C2,5.064120159659069e-06
CCD C3,-4.444800083547307e-09
CCD Offset,0
CCD Gain,1.9
Laser Wavelength,785.0
Laser Enable,False
Laser Power,100.0
Laser Temperature,-99
Pixel Count,2048

Wavenumber,Processed
65.75,414.00
68.33,386.00
70.91,435.00
73.49,437.00
76.07,442.00
78.64,454.00
81.22,439.00
83.79,520.00
86.37,478.00
88.94,522.00
91.51,558.00
94.09,595.00
96.66,657.00
99.23,623.00
101.79,719.00
104.36,702.00
106.93,774.00
109.50,820.00
112.06,850.00
114.63,927.00
117.19,1007.00
119.75,1152.00
122.31,1148.00
124.87,1276.00
127.43,1316.00
129.99,1448.00
132.55,1568.00
135.11,1640.00
137.66,1784.00
140.22,1887.00
142.78,2005.00
145.33,2181.00
147.88,2225.00
150.43,2352.00
152.98,2508.00
155.53,2646.00
158.08,2876.00
160.63,3002.00
163.18,3176.00
165.73,3328.00
168.27,3536.00
170.82,3630.00
173.36,3831.00
175.90,3943.00
178.45,4055.00
180.99,4286.00
183.53,4347.00
186.07,4465.00
188.61,4619.00
191.14,4676.00
193.68,4824.00
196.22,4841.00
198.75,5088.00
201.29,5063.00
203.82,5127.00
206.35,5211.00
208.88,5228.00
211.41,5259.00
213.94,5251.00
216.47,5304.00
219.00,5272.00
221.53,5191.00
224.05,5156.00
226.58,5088.00
229.10,5120.00
231.63,5054.00
234.15,5004.00
236.67,4915.00
239.19,4826.00
241.71,4733.00
244.23,4658.00
246.75,4677.00
249.27,4575.00
251.78,4531.00
254.30,4507.00
256.81,4397.00
259.33,4364.00
261.84,4254.00
264.35,4186.00
266.86,4175.00
269.38,4068.00
271.88,3979.00
274.39,3985.00
276.90,3939.00
279.41,3831.00
281.91,3844.00
284.42,3778.00
286.92,3710.00
289.43,3637.00
291.93,3598.00
294.43,3569.00
296.93,3506.00
299.43,3482.00
301.93,3430.00
304.43,3417.00
306.92,3353.00
309.42,3345.00
311.91,3291.00
314.41,3381.00
316.90,3252.00
319.39,3301.00
321.89,3300.00
324.38,3373.00
326.87,3256.00
329.36,3326.00
331.84,3355.00
334.33,3355.00
336.82,3368.00
339.30,3388.00
341.79,3398.00
344.27,3419.00
346.75,3500.00
349.24,3516.00
351.72,3504.00
354.20,3512.00
356.68,3461.00
359.16,3450.00
361.63,3437.00
364.11,3309.00
366.59,3343.00
369.06,3285.00
371.53,3362.00
374.01,3351.00
376.48,3301.00
378.95,3410.00
381.42,3421.00
383.89,3495.00
386.36,3552.00
388.83,3572.00
391.29,3637.00
393.76,3782.00
396.23,3941.00
398.69,4103.00
401.15,4167.00
403.62,4372.00
406.08,4370.00
408.54,4298.00
411.00,4389.00
413.46,4570.00
415.91,4714.00
418.37,4946.00
420.83,5031.00
423.28,5067.00
425.74,4951.00
428.19,4750.00
430.64,4606.00
433.10,4472.00
435.55,4423.00
438.00,4471.00
440.45,4487.00
442.90,4638.00
445.34,4610.00
447.79,4647.00
450.24,4573.00
452.68,4325.00
455.12,4327.00
457.57,4096.00
460.01,3979.00
462.45,3865.00
464.89,3707.00
467.33,3533.00
469.77,3400.00
472.21,3446.00
474.64,3410.00
477.08,3438.00
479.52,3413.00
481.95,3450.00
484.38,3588.00
486.82,3656.00
489.25,3924.00
491.68,4000.00
494.11,4124.00
496.54,4218.00
498.96,4201.00
501.39,4249.00
503.82,4232.00
506.24,4305.00
508.67,4431.00
511.09,4521.00
513.52,4771.00
515.94,4896.00
518.36,4991.00
520.78,4810.00
523.20,4628.00
525.62,4304.00
528.03,3973.00
530.45,3863.00
532.87,3810.00
535.28,3759.00
537.69,3776.00
540.11,3695.00
542.52,3727.00
544.93,3555.00
547.34,3470.00
549.75,3273.00
552.16,3286.00
554.57,3263.00
556.98,3187.00
559.38,3193.00
561.79,3224.00
564.19,3199.00
566.59,3108.00
569.00,3138.00
571.40,3019.00
573.80,2905.00
576.20,2895.00
578.60,2836.00
581.00,2815.00
583.39,2802.00
585.79,2881.00
588.19,2823.00
590.58,2762.00
592.98,2708.00
595.37,2643.00
597.76,2561.00
600.15,2581.00
602.54,2453.00
604.93,2439.00
607.32,2350.00
609.71,2316.00
612.09,2344.00
614.48,2316.00
616.87,2272.00
619.25,2252.00
621.63,2263.00
624.02,2244.00
626.40,2208.00
628.78,2248.00
631.16,2252.00
633.54,2234.00
635.91,2246.00
638.29,2257.00
640.67,2244.00
643.04,2263.00
645.42,2255.00
647.79,2221.00
650.16,2174.00
652.54,2170.00
654.91,2130.00
657.28,2080.00
659.65,2068.00
662.02,2133.00
664.38,2092.00
666.75,2029.00
669.12,1997.00
671.48,2020.00
673.84,1973.00
676.21,1986.00
678.57,1989.00
680.93,1976.00
683.29,1912.00
685.65,1963.00
688.01,1933.00
690.37,1928.00
692.73,1955.00
695.08,1898.00
697.44,1925.00
699.79,1916.00
702.14,1891.00
704.50,1912.00
706.85,1912.00
709.20,1963.00
711.55,1900.00
713.90,1902.00
716.25,1868.00
718.60,1807.00
720.94,1826.00
723.29,1879.00
725.63,1794.00
727.98,1850.00
730.32,1838.00
732.66,1785.00
735.00,1827.00
737.34,1775.00
739.68,1764.00
742.02,1703.00
744.36,1788.00
746.70,1738.00
749.03,1725.00
751.37,1718.00
753.70,1749.00
756.04,1701.00
758.37,1712.00
760.70,1751.00
763.03,1714.00
765.36,1681.00
767.69,1742.00
770.02,1745.00
772.35,1774.00
774.67,1775.00
777.00,1790.00
779.32,1741.00
781.65,1631.00
783.97,1666.00
786.29,1617.00
788.61,1649.00
790.93,1575.00
793.25,1588.00
795.57,1551.00
797.89,1605.00
800.21,1530.00
802.52,1549.00
804.84,1544.00
807.15,1570.00
809.47,1538.00
811.78,1473.00
814.09,1502.00
816.40,1529.00
818.71,1498.00
821.02,1584.00
823.33,1495.00
825.64,1460.00
827.94,1513.00
830.25,1517.00
832.55,1521.00
834.86,1589.00
837.16,1616.00
839.46,1746.00
841.77,1798.00
844.07,1889.00
846.37,1895.00
848.66,1891.00
850.96,1876.00
853.26,1866.00
855.56,1817.00
857.85,1790.00
860.15,1791.00
862.44,1764.00
864.73,1695.00
867.02,1674.00
869.31,1625.00
871.60,1553.00
873.89,1536.00
876.18,1420.00
878.47,1416.00
880.76,1356.00
883.04,1346.00
885.33,1429.00
887.61,1539.00
889.89,1570.00
892.18,1695.00
894.46,1903.00
896.74,1925.00
899.02,2092.00
901.30,1906.00
903.58,1944.00
905.85,1849.00
908.13,1856.00
910.40,1978.00
912.68,1980.00
914.95,1992.00
917.23,2001.00
919.50,1961.00
921.77,1924.00
924.04,1735.00
926.31,1621.00
928.58,1479.00
930.84,1388.00
933.11,1342.00
935.38,1179.00
937.64,1150.00
939.91,1042.00
942.17,1098.00
944.43,1001.00
946.69,1038.00
948.95,1074.00
951.21,985.00
953.47,1021.00
955.73,959.00
957.99,968.00
960.25,955.00
962.50,1018.00
964.76,940.00
967.01,1001.00
969.26,980.00
971.51,1006.00
973.77,954.00
976.02,995.00
978.27,966.00
980.51,1015.00
982.76,1064.00
985.01,962.00
987.26,1033.00
989.50,1103.00
991.75,1089.00
993.99,1211.00
996.23,1129.00
998.47,1198.00
1000.71,1194.00
1002.95,1285.00
1005.19,1374.00
1007.43,1464.00
1009.67,1514.00
1011.91,1648.00
1014.14,1726.00
1016.38,1872.00
1018.61,1914.00
1020.84,1965.00
1023.08,1876.00
1025.31,1841.00
1027.54,1884.00
1029.77,1893.00
1032.00,2026.00
1034.23,2008.00
1036.45,2016.00
1038.68,2126.00
1040.91,2077.00
1043.13,2114.00
1045.35,2242.00
1047.58,2166.00
1049.80,2236.00
1052.02,2244.00
1054.24,2383.00
1056.46,2529.00
1058.68,2644.00
1060.90,2794.00
1063.11,2815.00
1065.33,2876.00
1067.55,2823.00
1069.76,2740.00
1071.97,2638.00
1074.19,2555.00
1076.40,2452.00
1078.61,2360.00
1080.82,2278.00
1083.03,2136.00
1085.24,2025.00
1087.44,1880.00
1089.65,1760.00
1091.86,1768.00
1094.06,1809.00
1096.27,1824.00
1098.47,1925.00
1100.67,2090.00
1102.87,2204.00
1105.07,2206.00
1107.27,2483.00
1109.47,2568.00
1111.67,2768.00
1113.87,2870.00
1116.07,3100.00
1118.26,3298.00
1120.46,3385.00
1122.65,3593.00
1124.84,3670.00
1127.04,3698.00
1129.23,3624.00
1131.42,3461.00
1133.61,3343.00
1135.80,3017.00
1137.98,2798.00
1140.17,2491.00
1142.36,2263.00
1144.54,1994.00
1146.73,1913.00
1148.91,1842.00
1151.09,1756.00
1153.28,1816.00
1155.46,1741.00
1157.64,1725.00
1159.82,1564.00
1162.00,1608.00
1164.17,1478.00
1166.35,1365.00
1168.53,1214.00
1170.70,1227.00
1172.88,1160.00
1175.05,1103.00
1177.22,1023.00
1179.40,1027.00
1181.57,1020.00
1183.74,982.00
1185.91,911.00
1188.07,968.00
1190.24,1027.00
1192.41,929.00
1194.57,1029.00
1196.74,982.00
1198.90,1046.00
1201.07,1109.00
1203.23,1170.00
1205.39,1124.00
1207.55,1097.00
1209.71,1046.00
1211.87,1065.00
1214.03,1046.00
1216.19,1050.00
1218.34,1090.00
1220.50,993.00
1222.66,1067.00
1224.81,1082.00
1226.96,1067.00
1229.11,1130.00
1231.27,1128.00
1233.42,1154.00
1235.57,1129.00
1237.72,1162.00
1239.86,1171.00
1242.01,1132.00
1244.16,1205.00
1246.30,1226.00
1248.45,1238.00
1250.59,1241.00
1252.74,1200.00
1254.88,1291.00
1257.02,1342.00
1259.16,1357.00
1261.30,1328.00
1263.44,1525.00
1265.58,1434.00
1267.71,1397.00
1269.85,1406.00
1271.99,1418.00
1274.12,1305.00
1276.25,1270.00
1278.39,1249.00
1280.52,1149.00
1282.65,1189.00
1284.78,1191.00
1286.91,1105.00
1289.04,1141.00
1291.17,1138.00
1293.30,1054.00
1295.42,1023.00
1297.55,1063.00
1299.67,1107.00
1301.80,1097.00
1303.92,1177.00
1306.04,1122.00
1308.16,1156.00
1310.28,1300.00
1312.40,1250.00
1314.52,1310.00
1316.64,1338.00
1318.76,1325.00
1320.87,1447.00
1322.99,1472.00
1325.10,1496.00
1327.22,1553.00
1329.33,1620.00
1331.44,1545.00
1333.55,1565.00
1335.66,1617.00
1337.77,1577.00
1339.88,1617.00
1341.99,1560.00
1344.10,1623.00
1346.20,1581.00
1348.31,1654.00
1350.41,1676.00
1352.52,1696.00
1354.62,1775.00
1356.72,1730.00
1358.82,1803.00
1360.92,1917.00
1363.02,1965.00
1365.12,2056.00
1367.22,1986.00
1369.31,1982.00
1371.41,1921.00
1373.51,2054.00
1375.60,1862.00
1377.69,1822.00
1379.79,1805.00
1381.88,1695.00
1383.97,1689.00
1386.06,1641.00
1388.15,1540.00
1390.24,1460.00
1392.33,1393.00
1394.41,1325.00
1396.50,1295.00
1398.59,1227.00
1400.67,1168.00
1402.75,1180.00
1404.84,1103.00
1406.92,1037.00
1409.00,1196.00
1411.08,1067.00
1413.16,1122.00
1415.24,1141.00
1417.32,1015.00
1419.39,968.00
1421.47,1036.00
1423.54,993.00
1425.62,928.00
1427.69,1008.00
1429.77,898.00
1431.84,931.00
1433.91,968.00
1435.98,919.00
1438.05,993.00
1440.12,985.00
1442.19,948.00
1444.25,984.00
1446.32,989.00
1448.38,1025.00
1450.45,999.00
1452.51,1164.00
1454.58,1241.00
1456.64,1409.00
1458.70,1485.00
1460.76,1451.00
1462.82,1467.00
1464.88,1416.00
1466.94,1348.00
1468.99,1327.00
1471.05,1208.00
1473.10,1069.00
1475.16,887.00
1477.21,879.00
1479.27,816.00
1481.32,762.00
1483.37,682.00
1485.42,723.00
1487.47,653.00
1489.52,695.00
1491.57,611.00
1493.61,564.00
1495.66,523.00
1497.71,623.00
1499.75,659.00
1501.79,559.00
1503.84,447.00
1505.88,514.00
1507.92,544.00
1509.96,595.00
1512.00,516.00
1514.04,462.00
1516.08,564.00
1518.12,446.00
1520.15,496.00
1522.19,548.00
1524.22,577.00
1526.26,541.00
1528.29,510.00
1530.32,592.00
1532.35,575.00
1534.38,459.00
1536.41,582.00
1538.44,585.00
1540.47,645.00
1542.50,612.00
1544.53,674.00
1546.55,582.00
1548.58,572.00
1550.60,611.00
1552.62,485.00
1554.65,633.00
1556.67,623.00
1558.69,611.00
1560.71,624.00
1562.73,685.00
1564.75,773.00
1566.76,724.00
1568.78,680.00
1570.80,719.00
1572.81,850.00
1574.83,739.00
1576.84,852.00
1578.85,799.00
1580.86,752.00
1582.88,759.00
1584.89,852.00
1586.89,848.00
1588.90,852.00
1590.91,850.00
1592.92,944.00
1594.92,949.00
1596.93,908.00
1598.93,918.00
1600.94,1002.00
1602.94,989.00
1604.94,1063.00
1606.94,1082.00
1608.94,1065.00
1610.94,1072.00
1612.94,1091.00
1614.94,1090.00
1616.94,1227.00
1618.93,1245.00
1620.93,1232.00
1622.92,1217.00
1624.92,1299.00
1626.91,1310.00
1628.90,1302.00
1630.89,1295.00
1632.89,1329.00
1634.88,1296.00
1636.86,1388.00
1638.85,1434.00
1640.84,1353.00
1642.83,1344.00
1644.81,1482.00
1646.80,1277.00
1648.78,1361.00
1650.76,1322.00
1652.75,1265.00
1654.73,1317.00
1656.71,1325.00
1658.69,1265.00
1660.67,1253.00
1662.65,1204.00
1664.62,1184.00
1666.60,1173.00
1668.58,1071.00
1670.55,1103.00
1672.53,1006.00
1674.50,1010.00
1676.47,955.00
1678.45,961.00
1680.42,1010.00
1682.39,926.00
1684.36,953.00
1686.32,884.00
1688.29,814.00
1690.26,780.00
1692.23,848.00
1694.19,784.00
1696.16,731.00
1698.12,695.00
1700.08,657.00
1702.05,655.00
1704.01,551.00
1705.97,501.00
1707.93,518.00
1709.89,537.00
1711.84,533.00
1713.80,448.00
1715.76,520.00
1717.71,463.00
1719.67,448.00
1721.62,457.00
1723.58,406.00
1725.53,526.00
1727.48,374.00
1729.43,369.00
1731.38,382.00
1733.33,378.00
1735.28,277.00
1737.23,315.00
1739.17,332.00
1741.12,389.00
1743.06,277.00
1745.01,386.00
1746.95,244.00
1748.90,232.00
1750.84,258.00
1752.78,192.00
1754.72,287.00
1756.66,315.00
1758.60,228.00
1760.54,271.00
1762.47,230.00
1764.41,154.00
1766.35,182.00
1768.28,178.00
1770.21,167.00
1772.15,251.00
1774.08,192.00
1776.01,202.00
1777.94,228.00
1779.87,163.00
1781.80,220.00
1783.73,192.00
1785.66,124.00
1787.58,167.00
1789.51,79.00
1791.44,108.00
1793.36,158.00
1795.28,216.00
1797.21,122.00
1799.13,204.00
1801.05,180.00
1802.97,80.00
1804.89,159.00
1806.81,158.00
1808.73,173.00
1810.64,146.00
1812.56,156.00
1814.48,126.00
1816.39,59.00
1818.30,103.00
1820.22,100.00
1822.13,144.00
1824.04,127.00
1825.95,107.00
1827.86,50.00
1829.77,110.00
1831.68,118.00
1833.59,89.00
1835.49,74.00
1837.40,48.00
1839.31,93.00
1841.21,131.00
1843.11,49.00
1845.02,120.00
1846.92,136.00
1848.82,127.00
1850.72,93.00
1852.62,121.00
1854.52,78.00
1856.42,85.00
1858.31,40.00
1860.21,133.00
1862.11,44.00
1864.00,84.00
1865.89,122.00
1867.79,118.00
1869.68,46.00
1871.57,131.00
1873.46,72.00
1875.35,124.00
1877.24,76.00
1879.13,76.00
1881.02,148.00
1882.91,63.00
1884.79,89.00
1886.68,122.00
1888.56,91.00
1890.45,97.00
1892.33,66.00
1894.21,171.00
1896.09,121.00
1897.97,17.00
1899.85,129.00
1901.73,141.00
1903.61,112.00
1905.49,89.00
1907.36,103.00
1909.24,57.00
1911.11,104.00
1912.99,104.00
1914.86,92.00
1916.74,79.00
1918.61,53.00
1920.48,59.00
1922.35,90.00
1924.22,108.00
1926.09,100.00
1927.95,63.00
1929.82,124.00
1931.69,160.00
1933.55,99.00
1935.42,152.00
1937.28,133.00
1939.15,57.00
1941.01,140.00
1942.87,102.00
1944.73,133.00
1946.59,102.00
1948.45,156.00
1950.31,110.00
1952.17,147.00
1954.02,112.00
1955.88,154.00
1957.73,157.00
1959.59,95.00
1961.44,136.00
1963.30,130.00
1965.15,156.00
1967.00,177.00
1968.85,154.00
1970.70,202.00
1972.55,114.00
1974.40,155.00
1976.25,228.00
1978.09,165.00
1979.94,176.00
1981.78,184.00
1983.63,181.00
1985.47,191.00
1987.31,157.00
1989.16,193.00
1991.00,196.00
1992.84,206.00
1994.68,184.00
1996.52,207.00
1998.35,176.00
2000.19,236.00
2002.03,182.00
2003.86,186.00
2005.70,226.00
2007.53,179.00
2009.37,252.00
2011.20,224.00
2013.03,217.00
2014.86,193.00
2016.69,225.00
2018.52,267.00
2020.35,224.00
2022.18,192.00
2024.01,238.00
2025.83,207.00
2027.66,247.00
2029.48,211.00
2031.31,243.00
2033.13,270.00
2034.95,300.00
2036.77,270.00
2038.59,239.00
2040.42,213.00
2042.23,253.00
2044.05,276.00
2045.87,251.00
2047.69,262.00
2049.50,299.00
2051.32,240.00
2053.13,243.00
2054.95,289.00
2056.76,253.00
2058.57,266.00
2060.39,262.00
2062.20,264.00
2064.01,260.00
2065.82,286.00
2067.62,285.00
2069.43,302.00
2071.24,326.00
2073.05,266.00
2074.85,267.00
2076.66,330.00
2078.46,283.00
2080.26,285.00
2082.06,311.00
2083.87,311.00
2085.67,317.00
2087.47,323.00
2089.27,315.00
2091.06,275.00
2092.86,264.00
2094.66,283.00
2096.45,309.00
2098.25,294.00
2100.04,268.00
2101.84,332.00
2103.63,241.00
2105.42,301.00
2107.22,319.00
2109.01,262.00
2110.80,317.00
2112.59,289.00
2114.37,319.00
2116.16,305.00
2117.95,292.00
2119.73,254.00
2121.52,315.00
2123.30,331.00
2125.09,288.00
2126.87,298.00
2128.65,287.00
2130.43,285.00
2132.22,334.00
2134.00,252.00
2135.77,355.00
2137.55,294.00
2139.33,340.00
2141.11,294.00
2142.88,277.00
2144.66,316.00
2146.43,281.00
2148.21,258.00
2149.98,300.00
2151.75,311.00
2153.52,262.00
2155.29,243.00
2157.06,272.00
2158.83,249.00
2160.60,285.00
2162.37,260.00
2164.14,259.00
2165.90,273.00
2167.67,281.00
2169.43,237.00
2171.20,267.00
2172.96,228.00
2174.72,239.00
2176.48,230.00
2178.24,239.00
2180.00,236.00
2181.76,250.00
2183.52,258.00
2185.28,222.00
2187.04,228.00
2188.79,219.00
2190.55,253.00
2192.30,228.00
2194.06,211.00
2195.81,269.00
2197.56,261.00
2199.31,232.00
2201.06,231.00
2202.81,244.00
2204.56,209.00
2206.31,222.00
2208.06,228.00
2209.81,212.00
2211.55,271.00
2213.30,197.00
2215.04,241.00
2216.79,182.00
2218.53,182.00
2220.27,192.00
2222.01,167.00
2223.76,211.00
2225.50,209.00
2227.23,195.00
2228.97,177.00
2230.71,182.00
2232.45,207.00
2234.18,148.00
2235.92,209.00
2237.66,186.00
2239.39,178.00
2241.12,156.00
2242.86,140.00
2244.59,182.00
2246.32,154.00
2248.05,163.00
2249.78,127.00
2251.51,207.00
2253.23,203.00
2254.96,161.00
2256.69,180.00
2258.41,107.00
2260.14,160.00
2261.86,167.00
2263.59,108.00
2265.31,146.00
2267.03,118.00
2268.75,117.00
2270.47,112.00
2272.19,134.00
2273.91,135.00
2275.63,156.00
2277.35,117.00
2279.06,127.00
2280.78,170.00
2282.50,100.00
2284.21,146.00
2285.92,147.00
2287.64,125.00
2289.35,120.00
2291.06,131.00
2292.77,99.00
2294.48,131.00
2296.19,115.00
2297.90,106.00
2299.61,95.00
2301.31,121.00
2303.02,93.00
2304.72,117.00
2306.43,98.00
2308.13,98.00
2309.84,45.00
2311.54,99.00
2313.24,86.00
2314.94,72.00
2316.64,49.00
2318.34,46.00
2320.04,74.00
2321.74,87.00
2323.43,65.00
2325.13,30.00
2326.83,-6.00
2328.52,-8.00
2330.21,25.00
2331.91,10.00
2333.60,61.00
2335.29,63.00
2336.98,77.00
2338.67,68.00
2340.36,91.00
2342.05,95.00
2343.74,80.00
2345.43,55.00
2347.11,112.00
2348.80,72.00
2350.49,72.00
2352.17,72.00
2353.85,81.00
2355.54,91.00
2357.22,70.00
2358.90,66.00
2360.58,74.00
2362.26,34.00
2363.94,103.00
2365.62,80.00
2367.30,83.00
2368.97,117.00
2370.65,120.00
2372.32,74.00
2374.00,85.00
2375.67,42.00
2377.35,114.00
2379.02,74.00
2380.69,63.00
2382.36,60.00
2384.03,40.00
2385.70,47.00
2387.37,40.00
2389.04,46.00
2390.70,59.00
2392.37,40.00
2394.04,66.00
2395.70,23.00
2397.37,59.00
2399.03,38.00
2400.69,25.00
2402.35,49.00
2404.02,89.00
2405.68,55.00
2407.34,50.00
2409.00,72.00
2410.65,40.00
2412.31,133.00
2413.97,61.00
2415.62,110.00
2417.28,89.00
2418.93,21.00
2420.59,55.00
2422.24,55.00
2423.89,49.00
2425.55,57.00
2427.20,89.00
2428.85,62.00
2430.50,93.00
2432.14,59.00
2433.79,94.00
2435.44,34.00
2437.09,69.00
2438.73,58.00
2440.38,27.00
2442.02,82.00
2443.66,47.00
2445.31,44.00
2446.95,34.00
2448.59,70.00
2450.23,95.00
2451.87,48.00
2453.51,76.00
2455.15,55.00
2456.79,72.00
2458.42,32.00
2460.06,59.00
2461.70,72.00
2463.33,25.00
2464.96,44.00
2466.60,53.00
2468.23,36.00
2469.86,85.00
2471.49,55.00
2473.12,54.00
2474.75,53.00
2476.38,72.00
2478.01,42.00
2479.64,47.00
2481.26,53.00
2482.89,51.00
2484.51,69.00
2486.14,47.00
2487.76,48.00
2489.39,71.00
2491.01,83.00
2492.63,71.00
2494.25,32.00
2495.87,84.00
2497.49,101.00
2499.11,146.00
2500.73,91.00
2502.34,57.00
2503.96,66.00
2505.57,61.00
2507.19,61.00
2508.80,53.00
2510.42,36.00
2512.03,65.00
2513.64,2.00
2515.25,43.00
2516.86,80.00
2518.47,54.00
2520.08,51.00
2521.69,74.00
2523.30,53.00
2524.91,53.00
2526.51,47.00
2528.12,42.00
2529.72,76.00
2531.33,60.00
2532.93,69.00
2534.53,91.00
2536.13,103.00
2537.73,72.00
2539.33,108.00
2540.93,59.00
2542.53,40.00
2544.13,78.00
2545.73,60.00
2547.32,80.00
2548.92,86.00
2550.52,72.00
2552.11,68.00
2553.70,82.00
2555.30,70.00
2556.89,93.00
2558.48,42.00
2560.07,69.00
2561.66,84.00
2563.25,88.00
2564.84,94.00
2566.43,106.00
2568.02,97.00
2569.60,60.00
2571.19,27.00
2572.77,61.00
2574.36,46.00
2575.94,70.00
2577.52,59.00
2579.11,85.00
2580.69,70.00
