ENLIGHTEN Version,1.6.8
Measurement ID,20190528-172711-347103-WP-00204
Serial Number,WP-00204
Label,Glucose 100g per L
Integration Time,2000
Timestamp,2019-05-28 17:27:11.347103
Note,
Temperature,-99
CCD C0,640.9744873046875
CCD C1,0.11524999886751175
CCD C2,-5.4810998335597105e-06
CCD C3,-6.335299840287689e-09
CCD Offset,0
CCD Gain,1.9
Laser Wavelength,633.0
Laser Enable,False
Laser Power,100.0
Laser Temperature,-99
Pixel Count,1024

Wavenumber,Processed
196.54,793.00
199.35,814.00
202.15,746.00
204.95,759.00
207.75,721.00
210.55,713.00
213.35,689.00
216.15,670.00
218.94,636.00
221.74,579.00
224.53,613.00
227.32,563.00
230.11,567.00
232.90,512.00
235.69,527.00
238.48,481.00
241.26,487.00
244.05,432.00
246.83,461.00
249.61,449.00
252.39,394.00
255.17,403.00
257.95,391.00
260.72,404.00
263.50,388.00
266.27,379.00
269.05,342.00
271.82,343.00
274.59,346.00
277.36,293.00
280.12,328.00
282.89,291.00
285.66,312.00
288.42,310.00
291.18,297.00
293.94,310.00
296.70,284.00
299.46,303.00
302.22,228.00
304.97,298.00
307.73,253.00
310.48,254.00
313.23,226.00
315.99,254.00
318.73,226.00
321.48,262.00
324.23,253.00
326.98,229.00
329.72,275.00
332.46,268.00
335.21,234.00
337.95,268.00
340.69,284.00
343.42,299.00
346.16,280.00
348.90,278.00
351.63,296.00
354.36,299.00
357.10,253.00
359.83,261.00
362.55,285.00
365.28,277.00
368.01,296.00
370.73,312.00
373.46,274.00
376.18,240.00
378.90,259.00
381.62,268.00
384.34,287.00
387.06,278.00
389.78,306.00
392.49,323.00
395.20,326.00
397.92,352.00
400.63,411.00
403.34,424.00
406.05,362.00
408.75,405.00
411.46,393.00
414.16,419.00
416.87,464.00
419.57,459.00
422.27,464.00
424.97,407.00
427.67,354.00
430.37,361.00
433.06,413.00
435.76,348.00
438.45,392.00
441.14,386.00
443.83,386.00
446.52,381.00
449.21,364.00
451.90,361.00
454.58,370.00
457.27,344.00
459.95,340.00
462.63,266.00
465.31,257.00
467.99,314.00
470.67,278.00
473.35,263.00
476.02,240.00
478.70,282.00
481.37,293.00
484.04,274.00
486.71,303.00
489.38,333.00
492.05,347.00
494.71,352.00
497.38,367.00
500.04,388.00
502.70,379.00
505.37,447.00
508.03,426.00
510.68,451.00
513.34,479.00
516.00,472.00
518.65,394.00
521.31,395.00
523.96,329.00
526.61,310.00
529.26,312.00
531.91,284.00
534.55,331.00
537.20,285.00
539.84,314.00
542.49,304.00
545.13,234.00
547.77,212.00
550.41,242.00
553.05,232.00
555.68,215.00
558.32,264.00
560.95,245.00
563.59,217.00
566.22,200.00
568.85,186.00
571.48,220.00
574.11,206.00
576.73,204.00
579.36,219.00
581.98,211.00
584.61,184.00
587.23,238.00
589.85,191.00
592.47,177.00
595.08,152.00
597.70,165.00
600.31,154.00
602.93,145.00
605.54,156.00
608.15,128.00
610.76,128.00
613.37,116.00
615.98,143.00
618.58,135.00
621.19,118.00
623.79,158.00
626.39,127.00
629.00,124.00
631.59,154.00
634.19,130.00
636.79,175.00
639.39,101.00
641.98,156.00
644.57,108.00
647.17,131.00
649.76,162.00
652.35,137.00
654.93,128.00
657.52,124.00
660.11,119.00
662.69,133.00
665.27,142.00
667.85,103.00
670.43,160.00
673.01,179.00
675.59,102.00
678.17,112.00
680.74,110.00
683.32,76.00
685.89,118.00
688.46,118.00
691.03,141.00
693.60,101.00
696.17,42.00
698.73,89.00
701.30,91.00
703.86,114.00
706.43,115.00
708.99,93.00
711.55,78.00
714.10,127.00
716.66,101.00
719.22,70.00
721.77,86.00
724.33,103.00
726.88,112.00
729.43,101.00
731.98,86.00
734.53,97.00
737.07,122.00
739.62,65.00
742.16,87.00
744.71,112.00
747.25,84.00
749.79,113.00
752.33,59.00
754.87,120.00
757.40,120.00
759.94,118.00
762.47,101.00
765.01,120.00
767.54,124.00
770.07,102.00
772.60,114.00
775.12,135.00
777.65,97.00
780.18,89.00
782.70,86.00
785.22,82.00
787.74,122.00
790.26,57.00
792.78,65.00
795.30,40.00
797.82,96.00
800.33,63.00
802.84,45.00
805.36,38.00
807.87,84.00
810.38,86.00
812.89,61.00
815.39,52.00
817.90,71.00
820.40,73.00
822.91,65.00
825.41,59.00
827.91,78.00
830.41,92.00
832.91,70.00
835.40,118.00
837.90,144.00
840.39,129.00
842.89,123.00
845.38,111.00
847.87,154.00
850.36,104.00
852.85,120.00
855.33,147.00
857.82,126.00
860.30,78.00
862.79,95.00
865.27,40.00
867.75,92.00
870.23,40.00
872.70,85.00
875.18,36.00
877.66,54.00
880.13,36.00
882.60,78.00
885.07,121.00
887.54,103.00
890.01,114.00
892.48,114.00
894.95,164.00
897.41,118.00
899.87,135.00
902.34,136.00
904.80,135.00
907.26,139.00
909.72,154.00
912.17,127.00
914.63,118.00
917.08,116.00
919.54,153.00
921.99,108.00
924.44,97.00
926.89,21.00
929.34,19.00
931.78,21.00
934.23,27.00
936.67,-17.00
939.12,2.00
941.56,32.00
944.00,29.00
946.44,52.00
948.88,27.00
951.31,4.00
953.75,8.00
956.18,0.00
958.61,-36.00
961.05,44.00
963.48,-26.00
965.91,57.00
968.33,-8.00
970.76,66.00
973.18,38.00
975.61,13.00
978.03,8.00
980.45,5.00
982.87,48.00
985.29,40.00
987.71,-2.00
990.12,30.00
992.54,38.00
994.95,4.00
997.36,50.00
999.78,103.00
1002.19,76.00
1004.59,107.00
1007.00,175.00
1009.41,145.00
1011.81,153.00
1014.21,177.00
1016.62,131.00
1019.02,127.00
1021.42,131.00
1023.82,179.00
1026.21,170.00
1028.61,177.00
1031.00,205.00
1033.39,190.00
1035.79,185.00
1038.18,196.00
1040.57,175.00
1042.95,172.00
1045.34,168.00
1047.73,192.00
1050.11,190.00
1052.49,278.00
1054.87,300.00
1057.25,301.00
1059.63,302.00
1062.01,251.00
1064.39,303.00
1066.76,287.00
1069.14,295.00
1071.51,274.00
1073.88,244.00
1076.25,222.00
1078.62,217.00
1080.99,188.00
1083.35,167.00
1085.72,186.00
1088.08,111.00
1090.44,150.00
1092.80,175.00
1095.16,166.00
1097.52,192.00
1099.88,213.00
1102.24,211.00
1104.59,276.00
1106.94,291.00
1109.30,346.00
1111.65,356.00
1114.00,386.00
1116.34,405.00
1118.69,424.00
1121.04,468.00
1123.38,449.00
1125.72,413.00
1128.07,388.00
1130.41,360.00
1132.75,308.00
1135.08,273.00
1137.42,225.00
1139.76,234.00
1142.09,222.00
1144.42,202.00
1146.76,186.00
1149.09,142.00
1151.41,109.00
1153.74,139.00
1156.07,142.00
1158.39,125.00
1160.72,101.00
1163.04,73.00
1165.36,76.00
1167.68,80.00
1170.00,97.00
1172.32,110.00
1174.63,123.00
1176.95,46.00
1179.26,55.00
1181.58,48.00
1183.89,57.00
1186.20,32.00
1188.51,97.00
1190.81,51.00
1193.12,71.00
1195.42,69.00
1197.73,93.00
1200.03,88.00
1202.33,51.00
1204.63,44.00
1206.93,63.00
1209.23,48.00
1211.52,42.00
1213.82,63.00
1216.11,52.00
1218.40,59.00
1220.69,70.00
1222.98,57.00
1225.27,12.00
1227.56,74.00
1229.84,91.00
1232.13,85.00
1234.41,90.00
1236.69,104.00
1238.97,103.00
1241.25,89.00
1243.53,51.00
1245.80,114.00
1248.08,112.00
1250.35,95.00
1252.63,93.00
1254.90,149.00
1257.17,139.00
1259.44,105.00
1261.71,150.00
1263.97,139.00
1266.24,135.00
1268.50,122.00
1270.76,105.00
1273.03,104.00
1275.29,113.00
1277.54,80.00
1279.80,69.00
1282.06,68.00
1284.31,70.00
1286.57,85.00
1288.82,97.00
1291.07,97.00
1293.32,86.00
1295.57,91.00
1297.82,88.00
1300.06,107.00
1302.31,99.00
1304.55,82.00
1306.79,135.00
1309.03,126.00
1311.27,135.00
1313.51,123.00
1315.75,165.00
1317.98,141.00
1320.22,142.00
1322.45,147.00
1324.68,166.00
1326.91,140.00
1329.14,194.00
1331.37,183.00
1333.60,168.00
1335.82,148.00
1338.05,177.00
1340.27,195.00
1342.49,171.00
1344.71,177.00
1346.93,196.00
1349.15,198.00
1351.37,198.00
1353.58,253.00
1355.80,238.00
1358.01,228.00
1360.22,215.00
1362.43,264.00
1364.64,246.00
1366.85,228.00
1369.06,197.00
1371.26,274.00
1373.47,211.00
1375.67,171.00
1377.87,214.00
1380.07,221.00
1382.27,188.00
1384.47,173.00
1386.66,128.00
1388.86,140.00
1391.05,186.00
1393.24,126.00
1395.44,158.00
1397.63,114.00
1399.81,133.00
1402.00,110.00
1404.19,76.00
1406.37,130.00
1408.56,85.00
1410.74,122.00
1412.92,57.00
1415.10,112.00
1417.28,127.00
1419.46,120.00
1421.63,110.00
1423.81,47.00
1425.98,93.00
1428.15,78.00
1430.32,68.00
1432.49,65.00
1434.66,66.00
1436.83,66.00
1438.99,31.00
1441.16,47.00
1443.32,89.00
1445.48,86.00
1447.64,120.00
1449.80,131.00
1451.96,120.00
1454.12,167.00
1456.27,153.00
1458.43,198.00
1460.58,152.00
1462.73,193.00
1464.88,139.00
1467.03,146.00
1469.18,104.00
1471.33,63.00
1473.47,53.00
1475.62,59.00
1477.76,95.00
1479.90,-9.00
1482.04,57.00
1484.18,61.00
1486.32,15.00
1488.46,59.00
1490.59,38.00
1492.73,20.00
1494.86,10.00
1496.99,-15.00
1499.12,4.00
1501.25,74.00
1503.38,7.00
1505.50,46.00
1507.63,34.00
1509.75,-10.00
1511.88,9.00
1514.00,13.00
1516.12,61.00
1518.24,23.00
1520.35,44.00
1522.47,3.00
1524.59,-4.00
1526.70,57.00
1528.81,0.00
1530.92,5.00
1533.03,-7.00
1535.14,59.00
1537.25,71.00
1539.36,46.00
1541.46,11.00
1543.56,27.00
1545.67,11.00
1547.77,55.00
1549.87,12.00
1551.97,59.00
1554.06,46.00
1556.16,36.00
1558.25,69.00
1560.35,31.00
1562.44,78.00
1564.53,52.00
1566.62,21.00
1568.71,101.00
1570.80,30.00
1572.88,42.00
1574.97,50.00
1577.05,50.00
1579.13,92.00
1581.21,87.00
1583.29,44.00
1585.37,61.00
1587.45,95.00
1589.52,95.00
1591.60,87.00
1593.67,142.00
1595.74,104.00
1597.81,92.00
1599.88,80.00
1601.95,114.00
1604.02,131.00
1606.08,99.00
1608.15,146.00
1610.21,107.00
1612.27,131.00
1614.33,129.00
1616.39,173.00
1618.45,150.00
1620.51,198.00
1622.56,151.00
1624.62,207.00
1626.67,160.00
1628.72,143.00
1630.77,173.00
1632.82,145.00
1634.87,173.00
1636.92,173.00
1638.96,179.00
1641.01,158.00
1643.05,154.00
1645.09,148.00
1647.13,162.00
1649.17,158.00
1651.21,137.00
1653.25,161.00
1655.28,156.00
1657.32,135.00
1659.35,132.00
1661.38,112.00
1663.41,101.00
1665.44,141.00
1667.47,87.00
1669.49,63.00
1671.52,128.00
1673.54,97.00
1675.56,61.00
1677.59,90.00
1679.61,74.00
1681.63,48.00
1683.64,76.00
1685.66,71.00
1687.67,97.00
1689.69,46.00
1691.70,0.00
1693.71,95.00
1695.72,76.00
1697.73,36.00
1699.74,59.00
1701.75,38.00
1703.75,38.00
1705.75,53.00
1707.76,23.00
1709.76,-7.00
1711.76,5.00
1713.76,-4.00
1715.75,-10.00
1717.75,-40.00
1719.74,9.00
1721.74,-44.00
1723.73,-13.00
1725.72,-46.00
1727.71,-28.00
1729.70,-31.00
1731.69,-23.00
1733.67,-1.00
1735.66,-4.00
1737.64,-66.00
1739.62,-57.00
1741.61,-32.00
1743.59,-38.00
1745.56,-15.00
1747.54,-36.00
1749.52,-39.00
1751.49,-49.00
1753.47,-24.00
1755.44,-29.00
1757.41,-48.00
1759.38,-74.00
1761.35,2.00
1763.31,-89.00
1765.28,-46.00
1767.25,-65.00
1769.21,-41.00
1771.17,-52.00
1773.13,-63.00
1775.09,-85.00
1777.05,-23.00
1779.01,-50.00
1780.96,-86.00
1782.92,-19.00
1784.87,-53.00
1786.82,-99.00
1788.77,-38.00
1790.72,-80.00
1792.67,-15.00
1794.62,-49.00
1796.56,-72.00
1798.51,-63.00
1800.45,-57.00
1802.39,-40.00
1804.34,-80.00
1806.28,-93.00
1808.21,-74.00
1810.15,-78.00
1812.09,-38.00
1814.02,-57.00
1815.95,-36.00
1817.89,-78.00
1819.82,4.00
1821.75,-19.00
1823.67,-63.00
1825.60,-76.00
1827.53,-89.00
1829.45,-26.00
1831.37,-79.00
1833.30,-92.00
1835.22,-63.00
1837.14,-76.00
1839.06,-101.00
1840.97,-61.00
1842.89,-45.00
1844.80,-76.00
1846.72,-55.00
1848.63,-59.00
1850.54,-114.00
1852.45,-83.00
1854.36,-48.00
1856.26,-108.00
1858.17,-129.00
1860.07,-63.00
1861.98,-61.00
1863.88,-95.00
1865.78,-76.00
1867.68,-88.00
1869.58,-86.00
1871.47,-70.00
1873.37,-74.00
1875.26,-63.00
1877.15,-44.00
1879.05,-55.00
1880.94,-84.00
1882.83,-67.00
1884.71,-54.00
1886.60,-41.00
1888.49,-21.00
1890.37,-30.00
1892.25,-64.00
1894.14,-67.00
1896.02,-55.00
1897.90,-95.00
1899.77,-88.00
1901.65,-62.00
1903.53,-76.00
1905.40,-40.00
1907.27,-47.00
1909.15,-59.00
1911.02,-63.00
1912.89,-114.00
1914.75,-49.00
1916.62,-61.00
1918.49,-99.00
1920.35,-46.00
1922.21,-49.00
1924.07,-76.00
1925.93,-59.00
1927.79,-39.00
1929.65,-91.00
1931.51,-78.00
1933.36,-54.00
1935.22,-51.00
1937.07,-59.00
1938.92,-72.00
1940.77,-97.00
1942.62,-47.00
1944.47,-52.00
1946.32,-63.00
1948.16,-69.00
1950.01,-46.00
1951.85,-29.00
1953.69,-76.00
1955.53,-126.00
1957.37,-53.00
1959.21,-57.00
1961.05,-66.00
1962.88,-5.00
1964.72,-65.00
1966.55,-78.00
1968.38,-17.00
1970.21,-67.00
1972.04,-53.00
1973.87,-34.00
1975.69,-82.00
1977.52,-42.00
1979.34,-55.00
1981.17,-11.00
1982.99,-42.00
1984.81,-58.00
1986.63,-52.00
1988.45,-47.00
1990.26,13.00
1992.08,-65.00
1993.89,-50.00
1995.71,-97.00
1997.52,-25.00
1999.33,-66.00
2001.14,-63.00
2002.95,-82.00
2004.75,-9.00
2006.56,-70.00
2008.36,-45.00
2010.16,-63.00
2011.97,-44.00
2013.77,-95.00
2015.57,-49.00
2017.36,-42.00
2019.16,-25.00
2020.96,-51.00
2022.75,-26.00
2024.54,-72.00
2026.33,-9.00
2028.13,-24.00
2029.91,-59.00
2031.70,-66.00
2033.49,-80.00
2035.27,-97.00
2037.06,-41.00
2038.84,-33.00
2040.62,-38.00
2042.40,-44.00
2044.18,-46.00
2045.96,-70.00
2047.74,-42.00
2049.51,-37.00
2051.29,-68.00
2053.06,-28.00
2054.83,-53.00
2056.60,-19.00
2058.37,-49.00
2060.14,-41.00
2061.91,-44.00
2063.67,3.00
2065.44,-29.00
2067.20,-64.00
2068.96,-11.00
2070.72,-22.00
2072.48,-31.00
2074.24,-15.00
2076.00,-52.00
2077.75,-36.00
2079.51,-47.00
2081.26,-8.00
2083.01,21.00
2084.76,-12.00
2086.51,-32.00
2088.26,-53.00
2090.01,-21.00
2091.75,-17.00
2093.50,-23.00
2095.24,-2.00
2096.98,-23.00
2098.72,-65.00
2100.46,-47.00
2102.20,-38.00
2103.94,-32.00
2105.67,-30.00
2107.41,-59.00
2109.14,-72.00
2110.87,-65.00
2112.60,-61.00
2114.33,-36.00
2116.06,-53.00
2117.79,-4.00
2119.51,-26.00
2121.24,-83.00
2122.96,-2.00
2124.68,-6.00
2126.40,2.00
2128.12,-57.00
2129.84,-6.00
2131.56,-30.00
2133.27,-48.00
2134.99,-34.00
2136.70,-42.00
2138.41,0.00
2140.12,-26.00
2141.83,-2.00
2143.54,-41.00
2145.25,-11.00
2146.95,-71.00
2148.66,-57.00
2150.36,2.00
2152.06,-12.00
2153.76,-89.00
2155.46,35.00
2157.16,-49.00
2158.86,-15.00
2160.55,-66.00
2162.25,-32.00
2163.94,-26.00
2165.63,-47.00
2167.32,-55.00
2169.01,-23.00
2170.70,-73.00
2172.39,-2.00
2174.08,-23.00
2175.76,-61.00
2177.44,-34.00
2179.13,-57.00
2180.81,-54.00
2182.49,-51.00
2184.16,-95.00
2185.84,-36.00
2187.52,-70.00
2189.19,-65.00
2190.87,-55.00
2192.54,-73.00
2194.21,-70.00
2195.88,-55.00
2197.55,-52.00
2199.21,-59.00
2200.88,-42.00
2202.54,-45.00
2204.21,-10.00
2205.87,-21.00
2207.53,-15.00
2209.19,-64.00
2210.85,-89.00
2212.51,-69.00
2214.16,-103.00
2215.82,-46.00
2217.47,24.00
2219.12,-76.00
2220.77,-78.00
2222.42,-55.00
2224.07,-82.00
2225.72,-74.00
2227.37,-31.00
2229.01,-42.00
2230.65,-34.00
2232.30,14.00
2233.94,-63.00
2235.58,-25.00
2237.22,-22.00
2238.85,-38.00
2240.49,-43.00
2242.13,-57.00
2243.76,-23.00
2245.39,-59.00
2247.02,-36.00
2248.65,-69.00
2250.28,-28.00
2251.91,-50.00
2253.54,-88.00
2255.16,-90.00
2256.78,-94.00
2258.41,-35.00
2260.03,-21.00
2261.65,-51.00
2263.27,-34.00
2264.88,-38.00
2266.50,-36.00
2268.12,-59.00
2269.73,-86.00
2271.34,-42.00
2272.95,-61.00
2274.56,-46.00
2276.17,-103.00
2277.78,-35.00
2279.39,-59.00
2280.99,-109.00
2282.60,-47.00
2284.20,-66.00
2285.80,-68.00
2287.40,-63.00
2289.00,-59.00
2290.60,-69.00
2292.19,-91.00
2293.79,-93.00
2295.38,-55.00
2296.98,-89.00
2298.57,-51.00
2300.16,-45.00
2301.75,-80.00
2303.34,-40.00
2304.92,-33.00
2306.51,-118.00
2308.09,-114.00
2309.67,-109.00
2311.26,-110.00
2312.84,-46.00
2314.42,-78.00
2315.99,-93.00
2317.57,-87.00
2319.15,-52.00
2320.72,-114.00
2322.29,-126.00
2323.86,-106.00
2325.44,-59.00
2327.00,-99.00
2328.57,-93.00
2330.14,-79.00
2331.71,-54.00
2333.27,-38.00
2334.83,-82.00
2336.39,-105.00
2337.95,-98.00
2339.51,-59.00
2341.07,-99.00
2342.63,-66.00
2344.19,-76.00
2345.74,-61.00
2347.29,-78.00
2348.84,-88.00
2350.40,-78.00
2351.94,-59.00
2353.49,-75.00
2355.04,-90.00
2356.59,-63.00
2358.13,-68.00
2359.67,-40.00
2361.22,-85.00
2362.76,-68.00
2364.30,-84.00
2365.83,-135.00
2367.37,-34.00
2368.91,-95.00
2370.44,-109.00
2371.98,-87.00
2373.51,-126.00
2375.04,-68.00
2376.57,-33.00
2378.10,-60.00
2379.62,-67.00
2381.15,-69.00
2382.68,-87.00
2384.20,-76.00
2385.72,-78.00
2387.24,-53.00
2388.76,-101.00
2390.28,-26.00
2391.80,-95.00
2393.31,-116.00
2394.83,-122.00
2396.34,-107.00
2397.85,-99.00
2399.37,-57.00
