ENLIGHTEN Version,1.6.8
Measurement ID,20190528-081904-837059-WP-00391
Serial Number,WP-00391
Label,Glucose 100g per L
Integration Time,1000
Timestamp,2019-05-28 08:19:04.837059
Note,
Temperature,-99
CCD C0,789.0726928710938
CCD C1,0.16069164872169495
CCD C2,5.064120159659069e-06
CCD C3,-4.444800083547307e-09
CCD Offset,0
CCD Gain,1.9
Laser Wavelength,785.0
Laser Enable,False
Laser Power,100.0
Laser Temperature,-99
Pixel Count,2048

Wavenumber,Processed
65.75,192.00
68.33,196.00
70.91,186.00
73.49,192.00
76.07,207.00
78.64,228.00
81.22,211.00
83.79,205.00
86.37,226.00
88.94,234.00
91.51,224.00
94.09,279.00
96.66,294.00
99.23,288.00
101.79,323.00
104.36,328.00
106.93,425.00
109.50,405.00
112.06,405.00
114.63,469.00
117.19,493.00
119.75,513.00
122.31,533.00
124.87,579.00
127.43,604.00
129.99,685.00
132.55,723.00
135.11,767.00
137.66,816.00
140.22,874.00
142.78,927.00
145.33,982.00
147.88,1070.00
150.43,1107.00
152.98,1146.00
155.53,1236.00
158.08,1263.00
160.63,1394.00
163.18,1488.00
165.73,1522.00
168.27,1629.00
170.82,1697.00
173.36,1762.00
175.90,1794.00
178.45,1885.00
180.99,1950.00
183.53,1976.00
186.07,2032.00
188.61,2132.00
191.14,2174.00
193.68,2213.00
196.22,2198.00
198.75,2210.00
201.29,2258.00
203.82,2322.00
206.35,2286.00
208.88,2335.00
211.41,2352.00
213.94,2354.00
216.47,2343.00
219.00,2371.00
221.53,2315.00
224.05,2265.00
226.58,2217.00
229.10,2248.00
231.63,2202.00
234.15,2155.00
236.67,2157.00
239.19,2126.00
241.71,2062.00
244.23,2048.00
246.75,1950.00
249.27,1973.00
251.78,1863.00
254.30,1891.00
256.81,1764.00
259.33,1823.00
261.84,1747.00
264.35,1742.00
266.86,1707.00
269.38,1620.00
271.88,1623.00
274.39,1598.00
276.90,1549.00
279.41,1525.00
281.91,1494.00
284.42,1449.00
286.92,1466.00
289.43,1401.00
291.93,1376.00
294.43,1367.00
296.93,1352.00
299.43,1348.00
301.93,1274.00
304.43,1279.00
306.92,1263.00
309.42,1305.00
311.91,1255.00
314.41,1251.00
316.90,1262.00
319.39,1225.00
321.89,1247.00
324.38,1238.00
326.87,1262.00
329.36,1216.00
331.84,1275.00
334.33,1247.00
336.82,1274.00
339.30,1287.00
341.79,1312.00
344.27,1291.00
346.75,1341.00
349.24,1342.00
351.72,1370.00
354.20,1366.00
356.68,1361.00
359.16,1270.00
361.63,1274.00
364.11,1312.00
366.59,1243.00
369.06,1245.00
371.53,1280.00
374.01,1289.00
376.48,1297.00
378.95,1233.00
381.42,1300.00
383.89,1319.00
386.36,1306.00
388.83,1416.00
391.29,1451.00
393.76,1463.00
396.23,1547.00
398.69,1680.00
401.15,1691.00
403.62,1754.00
406.08,1784.00
408.54,1760.00
411.00,1782.00
413.46,1874.00
415.91,1944.00
418.37,2041.00
420.83,2125.00
423.28,2142.00
425.74,2060.00
428.19,1972.00
430.64,1873.00
433.10,1760.00
435.55,1751.00
438.00,1809.00
440.45,1807.00
442.90,1887.00
445.34,1925.00
447.79,1925.00
450.24,1863.00
452.68,1790.00
455.12,1697.00
457.57,1640.00
460.01,1536.00
462.45,1553.00
464.89,1408.00
467.33,1337.00
469.77,1313.00
472.21,1300.00
474.64,1289.00
477.08,1245.00
479.52,1316.00
481.95,1363.00
484.38,1394.00
486.82,1452.00
489.25,1534.00
491.68,1578.00
494.11,1650.00
496.54,1694.00
498.96,1674.00
501.39,1684.00
503.82,1726.00
506.24,1714.00
508.67,1822.00
511.09,1875.00
513.52,1974.00
515.94,2035.00
518.36,2037.00
520.78,2039.00
523.20,1936.00
525.62,1732.00
528.03,1616.00
530.45,1464.00
532.87,1536.00
535.28,1426.00
537.69,1500.00
540.11,1477.00
542.52,1448.00
544.93,1388.00
547.34,1264.00
549.75,1232.00
552.16,1189.00
554.57,1196.00
556.98,1177.00
559.38,1200.00
561.79,1185.00
564.19,1192.00
566.59,1221.00
569.00,1145.00
571.40,1107.00
573.80,1118.00
576.20,1022.00
578.60,1046.00
581.00,1037.00
583.39,1048.00
585.79,994.00
588.19,1033.00
590.58,997.00
592.98,987.00
595.37,917.00
597.76,926.00
600.15,927.00
602.54,841.00
604.93,797.00
607.32,795.00
609.71,736.00
612.09,791.00
614.48,727.00
616.87,721.00
619.25,726.00
621.63,722.00
624.02,733.00
626.40,751.00
628.78,734.00
631.16,746.00
633.54,782.00
635.91,781.00
638.29,739.00
640.67,703.00
643.04,725.00
645.42,724.00
647.79,760.00
650.16,754.00
652.54,741.00
654.91,647.00
657.28,666.00
659.65,662.00
662.02,651.00
664.38,642.00
666.75,638.00
669.12,617.00
671.48,594.00
673.84,621.00
676.21,594.00
678.57,638.00
680.93,630.00
683.29,619.00
685.65,579.00
688.01,592.00
690.37,626.00
692.73,603.00
695.08,583.00
697.44,619.00
699.79,604.00
702.14,613.00
704.50,568.00
706.85,581.00
709.20,638.00
711.55,618.00
713.90,606.00
716.25,565.00
718.60,587.00
720.94,577.00
723.29,547.00
725.63,587.00
727.98,541.00
730.32,554.00
732.66,520.00
735.00,536.00
737.34,564.00
739.68,492.00
742.02,494.00
744.36,538.00
746.70,465.00
749.03,507.00
751.37,488.00
753.70,532.00
756.04,488.00
758.37,557.00
760.70,510.00
763.03,505.00
765.36,534.00
767.69,522.00
770.02,600.00
772.35,539.00
774.67,601.00
777.00,545.00
779.32,505.00
781.65,564.00
783.97,469.00
786.29,460.00
788.61,509.00
790.93,456.00
793.25,450.00
795.57,407.00
797.89,429.00
800.21,427.00
802.52,450.00
804.84,461.00
807.15,402.00
809.47,439.00
811.78,435.00
814.09,350.00
816.40,402.00
818.71,446.00
821.02,438.00
823.33,380.00
825.64,452.00
827.94,431.00
830.25,452.00
832.55,435.00
834.86,470.00
837.16,518.00
839.46,452.00
841.77,564.00
844.07,586.00
846.37,608.00
848.66,626.00
850.96,592.00
853.26,593.00
855.56,574.00
857.85,586.00
860.15,583.00
862.44,530.00
864.73,530.00
867.02,516.00
869.31,490.00
871.60,438.00
873.89,465.00
876.18,406.00
878.47,412.00
880.76,391.00
883.04,359.00
885.33,429.00
887.61,416.00
889.89,526.00
892.18,547.00
894.46,609.00
896.74,648.00
899.02,649.00
901.30,722.00
903.58,649.00
905.85,617.00
908.13,689.00
910.40,624.00
912.68,689.00
914.95,678.00
917.23,693.00
919.50,653.00
921.77,598.00
924.04,578.00
926.31,509.00
928.58,490.00
930.84,380.00
933.11,324.00
935.38,293.00
937.64,241.00
939.91,241.00
942.17,218.00
944.43,254.00
946.69,207.00
948.95,209.00
951.21,228.00
953.47,209.00
955.73,195.00
957.99,172.00
960.25,181.00
962.50,184.00
964.76,129.00
967.01,222.00
969.26,186.00
971.51,209.00
973.77,215.00
976.02,188.00
978.27,165.00
980.51,211.00
982.76,203.00
985.01,245.00
987.26,253.00
989.50,283.00
991.75,184.00
993.99,296.00
996.23,234.00
998.47,316.00
1000.71,334.00
1002.95,343.00
1005.19,433.00
1007.43,362.00
1009.67,496.00
1011.91,560.00
1014.14,634.00
1016.38,656.00
1018.61,649.00
1020.84,672.00
1023.08,642.00
1025.31,661.00
1027.54,668.00
1029.77,681.00
1032.00,701.00
1034.23,702.00
1036.45,757.00
1038.68,765.00
1040.91,824.00
1043.13,799.00
1045.35,784.00
1047.58,846.00
1049.80,845.00
1052.02,862.00
1054.24,942.00
1056.46,1002.00
1058.68,1084.00
1060.90,1115.00
1063.11,1135.00
1065.33,1160.00
1067.55,1112.00
1069.76,1084.00
1071.97,1027.00
1074.19,1018.00
1076.40,909.00
1078.61,968.00
1080.82,856.00
1083.03,771.00
1085.24,809.00
1087.44,658.00
1089.65,600.00
1091.86,600.00
1094.06,615.00
1096.27,633.00
1098.47,651.00
1100.67,776.00
1102.87,758.00
1105.07,856.00
1107.27,965.00
1109.47,979.00
1111.67,1121.00
1113.87,1129.00
1116.07,1302.00
1118.26,1321.00
1120.46,1452.00
1122.65,1566.00
1124.84,1544.00
1127.04,1585.00
1129.23,1530.00
1131.42,1518.00
1133.61,1361.00
1135.80,1271.00
1137.98,1135.00
1140.17,957.00
1142.36,858.00
1144.54,746.00
1146.73,719.00
1148.91,683.00
1151.09,611.00
1153.28,620.00
1155.46,602.00
1157.64,602.00
1159.82,571.00
1162.00,545.00
1164.17,486.00
1166.35,403.00
1168.53,411.00
1170.70,313.00
1172.88,306.00
1175.05,317.00
1177.22,247.00
1179.40,233.00
1181.57,199.00
1183.74,281.00
1185.91,224.00
1188.07,256.00
1190.24,262.00
1192.41,262.00
1194.57,259.00
1196.74,235.00
1198.90,288.00
1201.07,306.00
1203.23,227.00
1205.39,294.00
1207.55,239.00
1209.71,283.00
1211.87,288.00
1214.03,279.00
1216.19,266.00
1218.34,251.00
1220.50,323.00
1222.66,262.00
1224.81,329.00
1226.96,224.00
1229.11,323.00
1231.27,336.00
1233.42,298.00
1235.57,337.00
1237.72,302.00
1239.86,357.00
1242.01,323.00
1244.16,315.00
1246.30,387.00
1248.45,357.00
1250.59,368.00
1252.74,386.00
1254.88,427.00
1257.02,459.00
1259.16,429.00
1261.30,485.00
1263.44,459.00
1265.58,501.00
1267.71,520.00
1269.85,414.00
1271.99,436.00
1274.12,410.00
1276.25,439.00
1278.39,362.00
1280.52,363.00
1282.65,323.00
1284.78,281.00
1286.91,351.00
1289.04,302.00
1291.17,312.00
1293.30,302.00
1295.42,305.00
1297.55,334.00
1299.67,287.00
1301.80,277.00
1303.92,331.00
1306.04,300.00
1308.16,357.00
1310.28,351.00
1312.40,413.00
1314.52,338.00
1316.64,391.00
1318.76,486.00
1320.87,471.00
1322.99,478.00
1325.10,503.00
1327.22,537.00
1329.33,508.00
1331.44,581.00
1333.55,546.00
1335.66,484.00
1337.77,607.00
1339.88,551.00
1341.99,607.00
1344.10,562.00
1346.20,611.00
1348.31,583.00
1350.41,594.00
1352.52,654.00
1354.62,641.00
1356.72,706.00
1358.82,671.00
1360.92,685.00
1363.02,786.00
1365.12,812.00
1367.22,811.00
1369.31,813.00
1371.41,795.00
1373.51,779.00
1375.60,662.00
1377.69,676.00
1379.79,644.00
1381.88,617.00
1383.97,630.00
1386.06,605.00
1388.15,488.00
1390.24,497.00
1392.33,505.00
1394.41,467.00
1396.50,406.00
1398.59,323.00
1400.67,283.00
1402.75,382.00
1404.84,334.00
1406.92,363.00
1409.00,323.00
1411.08,271.00
1413.16,332.00
1415.24,265.00
1417.32,307.00
1419.39,256.00
1421.47,277.00
1423.54,328.00
1425.62,247.00
1427.69,338.00
1429.77,266.00
1431.84,244.00
1433.91,300.00
1435.98,202.00
1438.05,248.00
1440.12,165.00
1442.19,233.00
1444.25,211.00
1446.32,220.00
1448.38,272.00
1450.45,306.00
1452.51,391.00
1454.58,368.00
1456.64,490.00
1458.70,473.00
1460.76,585.00
1462.82,549.00
1464.88,432.00
1466.94,478.00
1468.99,353.00
1471.05,378.00
1473.10,312.00
1475.16,178.00
1477.21,213.00
1479.27,116.00
1481.32,161.00
1483.37,86.00
1485.42,165.00
1487.47,166.00
1489.52,53.00
1491.57,78.00
1493.61,-35.00
1495.66,87.00
1497.71,62.00
1499.75,74.00
1501.79,89.00
1503.84,-89.00
1505.88,40.00
1507.92,61.00
1509.96,110.00
1512.00,46.00
1514.04,58.00
1516.08,16.00
1518.12,61.00
1520.15,72.00
1522.19,17.00
1524.22,53.00
1526.26,79.00
1528.29,38.00
1530.32,119.00
1532.35,46.00
1534.38,74.00
1536.41,100.00
1538.44,87.00
1540.47,69.00
1542.50,19.00
1544.53,127.00
1546.55,67.00
1548.58,80.00
1550.60,197.00
1552.62,101.00
1554.65,101.00
1556.67,87.00
1558.69,114.00
1560.71,172.00
1562.73,106.00
1564.75,109.00
1566.76,141.00
1568.78,91.00
1570.80,194.00
1572.81,126.00
1574.83,195.00
1576.84,129.00
1578.85,216.00
1580.86,123.00
1582.88,203.00
1584.89,176.00
1586.89,230.00
1588.90,239.00
1590.91,252.00
1592.92,241.00
1594.92,229.00
1596.93,272.00
1598.93,283.00
1600.94,312.00
1602.94,370.00
1604.94,306.00
1606.94,299.00
1608.94,340.00
1610.94,317.00
1612.94,435.00
1614.94,357.00
1616.94,418.00
1618.93,332.00
1620.93,505.00
1622.92,453.00
1624.92,442.00
1626.91,494.00
1628.90,422.00
1630.89,471.00
1632.89,480.00
1634.88,458.00
1636.86,516.00
1638.85,442.00
1640.84,476.00
1642.83,469.00
1644.81,505.00
1646.80,422.00
1648.78,488.00
1650.76,522.00
1652.75,400.00
1654.73,453.00
1656.71,462.00
1658.69,433.00
1660.67,444.00
1662.65,380.00
1664.62,405.00
1666.60,331.00
1668.58,416.00
1670.55,419.00
1672.53,363.00
1674.50,341.00
1676.47,296.00
1678.45,293.00
1680.42,355.00
1682.39,275.00
1684.36,272.00
1686.32,167.00
1688.29,228.00
1690.26,241.00
1692.23,169.00
1694.19,232.00
1696.16,133.00
1698.12,182.00
1700.08,180.00
1702.05,150.00
1704.01,103.00
1705.97,120.00
1707.93,144.00
1709.89,93.00
1711.84,110.00
1713.80,13.00
1715.76,51.00
1717.71,26.00
1719.67,49.00
1721.62,81.00
1723.58,-52.00
1725.53,34.00
1727.48,-6.00
1729.43,43.00
1731.38,15.00
1733.33,-21.00
1735.28,-39.00
1737.23,-32.00
1739.17,-7.00
1741.12,-77.00
1743.06,-44.00
1745.01,33.00
1746.95,-70.00
1748.90,-15.00
1750.84,-120.00
1752.78,-69.00
1754.72,-38.00
1756.66,-57.00
1758.60,-28.00
1760.54,-78.00
1762.47,-42.00
1764.41,-21.00
1766.35,-35.00
1768.28,-59.00
1770.21,-85.00
1772.15,-25.00
1774.08,-105.00
1776.01,-57.00
1777.94,11.00
1779.87,-64.00
1781.80,-78.00
1783.73,-115.00
1785.66,-57.00
1787.58,-59.00
1789.51,-133.00
1791.44,-47.00
1793.36,-146.00
1795.28,-133.00
1797.21,-75.00
1799.13,-120.00
1801.05,-48.00
1802.97,-123.00
1804.89,-30.00
1806.81,-74.00
1808.73,-49.00
1810.64,-115.00
1812.56,-161.00
1814.48,-82.00
1816.39,-112.00
1818.30,-87.00
1820.22,-146.00
1822.13,-55.00
1824.04,-68.00
1825.95,-104.00
1827.86,-79.00
1829.77,-172.00
1831.68,-61.00
1833.59,-76.00
1835.49,-103.00
1837.40,-112.00
1839.31,-115.00
1841.21,-87.00
1843.11,-138.00
1845.02,-64.00
1846.92,-59.00
1848.82,-118.00
1850.72,-59.00
1852.62,-123.00
1854.52,-75.00
1856.42,-127.00
1858.31,-91.00
1860.21,-112.00
1862.11,-138.00
1864.00,-82.00
1865.89,-144.00
1867.79,-63.00
1869.68,-89.00
1871.57,-110.00
1873.46,-66.00
1875.35,-93.00
1877.24,-59.00
1879.13,-129.00
1881.02,-101.00
1882.91,-42.00
1884.79,-91.00
1886.68,-58.00
1888.56,-110.00
1890.45,-46.00
1892.33,-103.00
1894.21,-165.00
1896.09,-97.00
1897.97,-100.00
1899.85,-59.00
1901.73,-123.00
1903.61,-70.00
1905.49,-76.00
1907.36,-67.00
1909.24,-53.00
1911.11,-76.00
1912.99,-36.00
1914.86,-108.00
1916.74,-93.00
1918.61,-61.00
1920.48,-79.00
1922.35,-61.00
1924.22,-59.00
1926.09,-46.00
1927.95,-34.00
1929.82,-59.00
1931.69,-21.00
1933.55,-95.00
1935.42,-65.00
1937.28,-117.00
1939.15,-31.00
1941.01,-86.00
1942.87,-70.00
1944.73,-21.00
1946.59,-78.00
1948.45,-42.00
1950.31,-74.00
1952.17,-106.00
1954.02,-28.00
1955.88,-99.00
1957.73,-24.00
1959.59,-89.00
1961.44,-93.00
1963.30,-46.00
1965.15,-66.00
1967.00,8.00
1968.85,-55.00
1970.70,-2.00
1972.55,-80.00
1974.40,-33.00
1976.25,-45.00
1978.09,-51.00
1979.94,-8.00
1981.78,-24.00
1983.63,-47.00
1985.47,-17.00
1987.31,-17.00
1989.16,-6.00
1991.00,-85.00
1992.84,-40.00
1994.68,-15.00
1996.52,-78.00
1998.35,10.00
2000.19,-44.00
2002.03,34.00
2003.86,14.00
2005.70,2.00
2007.53,21.00
2009.37,-14.00
2011.20,4.00
2013.03,-50.00
2014.86,13.00
2016.69,11.00
2018.52,-21.00
2020.35,48.00
2022.18,-28.00
2024.01,30.00
2025.83,-2.00
2027.66,-15.00
2029.48,32.00
2031.31,-20.00
2033.13,49.00
2034.95,-48.00
2036.77,23.00
2038.59,10.00
2040.42,13.00
2042.23,69.00
2044.05,-36.00
2045.87,36.00
2047.69,-8.00
2049.50,34.00
2051.32,42.00
2053.13,17.00
2054.95,56.00
2056.76,4.00
2058.57,74.00
2060.39,36.00
2062.20,7.00
2064.01,32.00
2065.82,34.00
2067.62,47.00
2069.43,-9.00
2071.24,91.00
2073.05,32.00
2074.85,55.00
2076.66,55.00
2078.46,47.00
2080.26,87.00
2082.06,11.00
2083.87,17.00
2085.67,72.00
2087.47,25.00
2089.27,87.00
2091.06,39.00
2092.86,85.00
2094.66,34.00
2096.45,51.00
2098.25,87.00
2100.04,40.00
2101.84,88.00
2103.63,9.00
2105.42,43.00
2107.22,43.00
2109.01,66.00
2110.80,91.00
2112.59,62.00
2114.37,112.00
2116.16,64.00
2117.95,34.00
2119.73,68.00
2121.52,-4.00
2123.30,82.00
2125.09,15.00
2126.87,70.00
2128.65,63.00
2130.43,21.00
2132.22,58.00
2134.00,34.00
2135.77,78.00
2137.55,50.00
2139.33,59.00
2141.11,67.00
2142.88,59.00
2144.66,93.00
2146.43,25.00
2148.21,80.00
2149.98,71.00
2151.75,51.00
2153.52,64.00
2155.29,30.00
2157.06,57.00
2158.83,45.00
2160.60,81.00
2162.37,63.00
2164.14,53.00
2165.90,89.00
2167.67,19.00
2169.43,98.00
2171.20,24.00
2172.96,29.00
2174.72,51.00
2176.48,21.00
2178.24,74.00
2180.00,-6.00
2181.76,45.00
2183.52,61.00
2185.28,22.00
2187.04,99.00
2188.79,29.00
2190.55,39.00
2192.30,-12.00
2194.06,34.00
2195.81,62.00
2197.56,-8.00
2199.31,76.00
2201.06,0.00
2202.81,56.00
2204.56,42.00
2206.31,2.00
2208.06,68.00
2209.81,-2.00
2211.55,53.00
2213.30,-4.00
2215.04,59.00
2216.79,33.00
2218.53,-4.00
2220.27,66.00
2222.01,13.00
2223.76,21.00
2225.50,15.00
2227.23,11.00
2228.97,42.00
2230.71,-13.00
2232.45,31.00
2234.18,-6.00
2235.92,13.00
2237.66,11.00
2239.39,6.00
2241.12,55.00
2242.86,-31.00
2244.59,24.00
2246.32,38.00
2248.05,-6.00
2249.78,32.00
2251.51,-24.00
2253.23,64.00
2254.96,-13.00
2256.69,-6.00
2258.41,-10.00
2260.14,-11.00
2261.86,56.00
2263.59,-33.00
2265.31,34.00
2267.03,45.00
2268.75,-19.00
2270.47,9.00
2272.19,-76.00
2273.91,40.00
2275.63,-61.00
2277.35,-12.00
2279.06,15.00
2280.78,11.00
2282.50,51.00
2284.21,-10.00
2285.92,4.00
2287.64,15.00
2289.35,-6.00
2291.06,4.00
2292.77,-44.00
2294.48,34.00
2296.19,-27.00
2297.90,-9.00
2299.61,9.00
2301.31,-23.00
2303.02,0.00
2304.72,-49.00
2306.43,-23.00
2308.13,-32.00
2309.84,5.00
2311.54,15.00
2313.24,-64.00
2314.94,-15.00
2316.64,-47.00
2318.34,-29.00
2320.04,-33.00
2321.74,-38.00
2323.43,-19.00
2325.13,-112.00
2326.83,-15.00
2328.52,-89.00
2330.21,-61.00
2331.91,-28.00
2333.60,-40.00
2335.29,2.00
2336.98,-55.00
2338.67,-20.00
2340.36,-40.00
2342.05,-41.00
2343.74,19.00
2345.43,-55.00
2347.11,8.00
2348.80,-49.00
2350.49,-25.00
2352.17,-21.00
2353.85,-19.00
2355.54,4.00
2357.22,-51.00
2358.90,13.00
2360.58,-30.00
2362.26,-27.00
2363.94,14.00
2365.62,-29.00
2367.30,2.00
2368.97,-73.00
2370.65,-8.00
2372.32,-46.00
2374.00,-40.00
2375.67,0.00
2377.35,-61.00
2379.02,-23.00
2380.69,-19.00
2382.36,-34.00
2384.03,15.00
2385.70,-28.00
2387.37,13.00
2389.04,-34.00
2390.70,-23.00
2392.37,-12.00
2394.04,-69.00
2395.70,10.00
2397.37,-57.00
2399.03,13.00
2400.69,-34.00
2402.35,-21.00
2404.02,-12.00
2405.68,-40.00
2407.34,14.00
2409.00,-61.00
2410.65,-12.00
2412.31,-8.00
2413.97,-53.00
2415.62,-17.00
2417.28,-70.00
2418.93,4.00
2420.59,-49.00
2422.24,-7.00
2423.89,-19.00
2425.55,-59.00
2427.20,24.00
2428.85,-78.00
2430.50,-12.00
2432.14,-17.00
2433.79,-28.00
2435.44,5.00
2437.09,-57.00
2438.73,-4.00
2440.38,-40.00
2442.02,-57.00
2443.66,-8.00
2445.31,-33.00
2446.95,-6.00
2448.59,-74.00
2450.23,-10.00
2451.87,-21.00
2453.51,4.00
2455.15,-17.00
2456.79,-43.00
2458.42,28.00
2460.06,-34.00
2461.70,-23.00
2463.33,-29.00
2464.96,-26.00
2466.60,2.00
2468.23,-63.00
2469.86,6.00
2471.49,15.00
2473.12,6.00
2474.75,8.00
2476.38,-29.00
2478.01,36.00
2479.64,-36.00
2481.26,0.00
2482.89,-2.00
2484.51,-27.00
2486.14,9.00
2487.76,-57.00
2489.39,21.00
2491.01,-30.00
2492.63,-23.00
2494.25,-9.00
2495.87,-34.00
2497.49,29.00
2499.11,-53.00
2500.73,17.00
2502.34,-10.00
2503.96,-4.00
2505.57,40.00
2507.19,-48.00
2508.80,34.00
2510.42,-42.00
2512.03,-19.00
2513.64,9.00
2515.25,-36.00
2516.86,27.00
2518.47,-49.00
2520.08,4.00
2521.69,-9.00
2523.30,-32.00
2524.91,4.00
2526.51,-61.00
2528.12,17.00
2529.72,-36.00
2531.33,15.00
2532.93,1.00
2534.53,-53.00
2536.13,-5.00
2537.73,-21.00
2539.33,19.00
2540.93,-23.00
2542.53,-2.00
2544.13,-12.00
2545.73,-25.00
2547.32,32.00
2548.92,-28.00
2550.52,-19.00
2552.11,12.00
2553.70,-19.00
2555.30,8.00
2556.89,-33.00
2558.48,27.00
2560.07,-21.00
2561.66,-29.00
2563.25,21.00
2564.84,-28.00
2566.43,5.00
2568.02,-24.00
2569.60,-8.00
2571.19,-3.00
2572.77,-30.00
2574.36,19.00
2575.94,-31.00
2577.52,34.00
2579.11,-25.00
2580.69,19.00
2582.27,13.00
2583.85,-39.00
2585.43,32.00
2587.01,-33.00
2588.58,38.00
2590.16,11.00
2591.74,-6.00
2593.31,26.00
2594.89,-17.00
2596.46,59.00
2598.04,5.00
2599.61,0.00
2601.18,36.00
2602.75,-58.00
2604.32,42.00
2605.89,-19.00
2607.46,23.00
2609.03,7.00
2610.60,14.00
2612.16,55.00
2613.73,-33.00
2615.30,65.00
2616.86,1.00
2618.43,19.00
2619.99,42.00
2621.55,4.00
2623.11,53.00
2624.67,-2.00
2626.24,59.00
2627.80,14.00
