ENLIGHTEN Version,1.6.8
Measurement ID,20190528-083147-857257-WP-00338
Serial Number,WP-00338
Label,Glucose 100g per L
Integration Time,2000
Timestamp,2019-05-28 08:31:47.857257
Note,
Temperature,-99
CCD C0,772.0532836914062
CCD C1,0.20115000009536743
CCD C2,-3.862100129481405e-06
CCD C3,-2.1540000005870752e-08
CCD Offset,0
CCD Gain,1.9
Laser Wavelength,785.0
Laser Enable,False
Laser Power,100.0
Laser Temperature,-99
Pixel Count,1024

Wavenumber,Processed
-213.62,6.00
-210.25,17.00
-206.87,10.00
-203.51,-23.00
-200.14,13.00
-196.77,-2.00
-193.41,10.00
-190.04,-9.00
-186.68,15.00
-183.33,9.00
-179.97,11.00
-176.61,-6.00
-173.26,4.00
-169.91,4.00
-166.56,-6.00
-163.21,-14.00
-159.87,-15.00
-156.53,5.00
-153.18,-7.00
-149.84,8.00
-146.51,21.00
-143.17,0.00
-139.84,-8.00
-136.50,3.00
-133.17,12.00
-129.85,-19.00
-126.52,17.00
-123.20,10.00
-119.87,0.00
-116.55,10.00
-113.23,19.00
-109.92,0.00
-106.60,4.00
-103.29,6.00
-99.98,17.00
-96.67,8.00
-93.36,-4.00
-90.06,-14.00
-86.75,-21.00
-83.45,4.00
-80.15,8.00
-76.85,13.00
-73.56,8.00
-70.26,17.00
-66.97,4.00
-63.68,-9.00
-60.39,-9.00
-57.11,11.00
-53.82,-12.00
-50.54,-18.00
-47.26,0.00
-43.98,-10.00
-40.71,-8.00
-37.43,0.00
-34.16,-2.00
-30.89,-4.00
-27.62,12.00
-24.35,-2.00
-21.09,-8.00
-17.82,-4.00
-14.56,2.00
-11.30,-15.00
-8.04,4.00
-4.79,0.00
-1.54,21.00
1.72,-12.00
4.97,27.00
8.21,-17.00
11.46,1.00
14.70,-8.00
17.95,-15.00
21.19,13.00
24.43,6.00
27.66,4.00
30.90,-7.00
34.13,-6.00
37.36,-8.00
40.59,-2.00
43.81,13.00
47.04,2.00
50.26,15.00
53.48,4.00
56.70,0.00
59.92,13.00
63.13,-6.00
66.35,15.00
69.56,15.00
72.77,16.00
75.98,17.00
79.18,-2.00
82.38,2.00
85.59,2.00
88.79,14.00
91.98,-6.00
95.18,-10.00
98.37,-5.00
101.57,-4.00
104.76,15.00
107.94,10.00
111.13,13.00
114.31,-11.00
117.50,0.00
120.68,-7.00
123.86,2.00
127.03,9.00
130.21,-4.00
133.38,0.00
136.55,2.00
139.72,-4.00
142.89,2.00
146.05,-21.00
149.21,2.00
152.37,2.00
155.53,6.00
158.69,10.00
161.85,9.00
165.00,-10.00
168.15,4.00
171.30,15.00
174.45,8.00
177.59,-6.00
180.74,-2.00
183.88,-8.00
187.02,0.00
190.16,4.00
193.29,16.00
196.43,19.00
199.56,6.00
202.69,0.00
205.82,0.00
208.94,-25.00
212.07,4.00
215.19,8.00
218.31,12.00
221.43,18.00
224.54,0.00
227.66,6.00
230.77,0.00
233.88,4.00
236.99,8.00
240.10,12.00
243.20,-8.00
246.30,0.00
249.40,-13.00
252.50,8.00
255.60,12.00
258.69,0.00
261.79,-6.00
264.88,0.00
267.97,-2.00
271.05,-14.00
274.14,19.00
277.22,7.00
280.30,-2.00
283.38,21.00
286.46,11.00
289.54,-7.00
292.61,15.00
295.68,10.00
298.75,8.00
301.82,6.00
304.88,41.00
307.95,7.00
311.01,15.00
314.07,22.00
317.13,34.00
320.18,18.00
323.24,29.00
326.29,4.00
329.34,43.00
332.39,59.00
335.43,72.00
338.48,106.00
341.52,179.00
344.56,230.00
347.60,331.00
350.64,468.00
353.67,672.00
356.70,872.00
359.73,1096.00
362.76,1278.00
365.79,1507.00
368.81,1625.00
371.84,1739.00
374.86,1840.00
377.88,1834.00
380.89,1823.00
383.91,1874.00
386.92,1948.00
389.93,1942.00
392.94,2077.00
395.95,2154.00
398.95,2216.00
401.96,2279.00
404.96,2305.00
407.96,2333.00
410.95,2416.00
413.95,2540.00
416.94,2602.00
419.93,2701.00
422.92,2619.00
425.91,2563.00
428.90,2469.00
431.88,2397.00
434.86,2344.00
437.84,2372.00
440.82,2417.00
443.79,2444.00
446.77,2473.00
449.74,2431.00
452.71,2344.00
455.68,2290.00
458.64,2130.00
461.61,2064.00
464.57,2009.00
467.53,1952.00
470.49,1851.00
473.44,1892.00
476.40,1932.00
479.35,1954.00
482.30,2011.00
485.25,2057.00
488.19,2235.00
491.14,2260.00
494.08,2310.00
497.02,2361.00
499.96,2363.00
502.90,2397.00
505.83,2494.00
508.76,2556.00
511.69,2637.00
514.62,2696.00
517.55,2732.00
520.47,2581.00
523.40,2456.00
526.32,2239.00
529.24,2121.00
532.15,2106.00
535.07,2096.00
537.98,2056.00
540.89,2055.00
543.80,1946.00
546.71,1944.00
549.61,1895.00
552.52,1835.00
555.42,1835.00
558.32,1797.00
561.21,1821.00
564.11,1796.00
567.00,1771.00
569.89,1735.00
572.78,1642.00
575.67,1640.00
578.55,1625.00
581.44,1620.00
584.32,1619.00
587.20,1595.00
590.08,1461.00
592.95,1542.00
595.83,1458.00
598.70,1432.00
601.57,1369.00
604.43,1349.00
607.30,1354.00
610.16,1307.00
613.03,1316.00
615.89,1280.00
618.74,1266.00
621.60,1246.00
624.45,1274.00
627.31,1284.00
630.16,1290.00
633.00,1296.00
635.85,1277.00
638.69,1326.00
641.54,1303.00
644.38,1279.00
647.21,1248.00
650.05,1266.00
652.88,1242.00
655.72,1193.00
658.55,1246.00
661.38,1224.00
664.20,1161.00
667.03,1128.00
669.85,1213.00
672.67,1132.00
675.49,1166.00
678.30,1081.00
681.12,1130.00
683.93,1088.00
686.74,1120.00
689.55,1113.00
692.36,1124.00
695.16,1094.00
697.96,1145.00
700.77,1097.00
703.56,1149.00
706.36,1103.00
709.16,1132.00
711.95,1073.00
714.74,1105.00
717.53,1090.00
720.32,1088.00
723.10,1090.00
725.88,1062.00
728.66,1069.00
731.44,1042.00
734.22,1083.00
737.00,1010.00
739.77,1042.00
742.54,1039.00
745.31,1035.00
748.08,997.00
750.84,1010.00
753.61,1053.00
756.37,1012.00
759.13,1035.00
761.88,1073.00
764.64,1033.00
767.39,1120.00
770.14,1105.00
772.89,1066.00
775.64,1092.00
778.39,1018.00
781.13,980.00
783.87,1040.00
786.61,999.00
789.35,984.00
792.09,989.00
794.82,934.00
797.55,1008.00
800.28,942.00
803.01,980.00
805.74,898.00
808.46,905.00
811.18,989.00
813.90,921.00
816.62,902.00
819.34,943.00
822.05,926.00
824.76,921.00
827.47,961.00
830.18,937.00
832.89,991.00
835.59,1057.00
838.29,1115.00
840.99,1157.00
843.69,1177.00
846.39,1162.00
849.08,1142.00
851.78,1170.00
854.47,1145.00
857.15,1063.00
859.84,1069.00
862.53,1054.00
865.21,1014.00
867.89,987.00
870.57,953.00
873.24,910.00
875.92,871.00
878.59,865.00
881.26,829.00
883.93,939.00
886.60,936.00
889.26,1032.00
891.93,1145.00
894.59,1223.00
897.25,1301.00
899.90,1221.00
902.56,1223.00
905.21,1257.00
907.86,1166.00
910.51,1210.00
913.16,1324.00
915.80,1274.00
918.45,1246.00
921.09,1124.00
923.73,1023.00
926.37,947.00
929.00,877.00
931.63,762.00
934.27,733.00
936.90,715.00
939.52,613.00
942.15,698.00
944.77,677.00
947.39,679.00
950.01,649.00
952.63,620.00
955.25,609.00
957.86,660.00
960.47,578.00
963.08,664.00
965.69,667.00
968.30,641.00
970.90,622.00
973.50,583.00
976.10,660.00
978.70,687.00
981.30,674.00
983.89,662.00
986.48,713.00
989.07,763.00
991.66,816.00
994.25,797.00
996.83,845.00
999.41,803.00
1001.99,923.00
1004.57,980.00
1007.15,1058.00
1009.72,1111.00
1012.30,1238.00
1014.87,1240.00
1017.43,1254.00
1020.00,1286.00
1022.57,1286.00
1025.13,1222.00
1027.69,1322.00
1030.25,1354.00
1032.80,1416.00
1035.36,1457.00
1037.91,1447.00
1040.46,1474.00
1043.01,1465.00
1045.56,1466.00
1048.10,1534.00
1050.65,1636.00
1053.19,1686.00
1055.73,1786.00
1058.26,1952.00
1060.80,1971.00
1063.33,1941.00
1065.86,1914.00
1068.39,1786.00
1070.92,1756.00
1073.44,1714.00
1075.97,1658.00
1078.49,1478.00
1081.01,1471.00
1083.53,1349.00
1086.04,1259.00
1088.55,1250.00
1091.07,1255.00
1093.58,1289.00
1096.08,1406.00
1098.59,1463.00
1101.09,1537.00
1103.59,1670.00
1106.09,1771.00
1108.59,1906.00
1111.09,2028.00
1113.58,2110.00
1116.07,2274.00
1118.56,2436.00
1121.05,2505.00
1123.54,2571.00
1126.02,2483.00
1128.50,2342.00
1130.98,2247.00
1133.46,2069.00
1135.94,1809.00
1138.41,1657.00
1140.88,1514.00
1143.35,1392.00
1145.82,1322.00
1148.29,1322.00
1150.75,1215.00
1153.22,1167.00
1155.68,1180.00
1158.14,1092.00
1160.59,1006.00
1163.05,1008.00
1165.50,944.00
1167.95,835.00
1170.40,835.00
1172.85,770.00
1175.29,734.00
1177.73,719.00
1180.17,742.00
1182.61,725.00
1185.05,736.00
1187.48,759.00
1189.92,753.00
1192.35,728.00
1194.78,812.00
1197.21,814.00
1199.63,835.00
1202.05,874.00
1204.47,843.00
1206.89,734.00
1209.31,771.00
1211.73,764.00
1214.14,830.00
1216.55,803.00
1218.96,846.00
1221.37,856.00
1223.77,845.00
1226.18,848.00
1228.58,832.00
1230.98,883.00
1233.38,896.00
1235.77,894.00
1238.17,885.00
1240.56,920.00
1242.95,944.00
1245.34,924.00
1247.72,966.00
1250.11,951.00
1252.49,1016.00
1254.87,1016.00
1257.25,1071.00
1259.62,1083.00
1262.00,1151.00
1264.37,1128.00
1266.74,1046.00
1269.11,1080.00
1271.48,1029.00
1273.84,1062.00
1276.20,949.00
1278.56,957.00
1280.92,927.00
1283.28,983.00
1285.63,865.00
1287.99,936.00
1290.34,841.00
1292.69,880.00
1295.03,865.00
1297.38,953.00
1299.72,937.00
1302.06,1025.00
1304.40,977.00
1306.74,1086.00
1309.07,1044.00
1311.41,1078.00
1313.74,1113.00
1316.07,1232.00
1318.39,1209.00
1320.72,1259.00
1323.04,1273.00
1325.37,1294.00
1327.68,1267.00
1330.00,1276.00
1332.32,1337.00
1334.63,1276.00
1336.94,1354.00
1339.25,1313.00
1341.56,1326.00
1343.87,1398.00
1346.17,1444.00
1348.47,1354.00
1350.77,1476.00
1353.07,1455.00
1355.37,1470.00
1357.66,1579.00
1359.95,1602.00
1362.24,1660.00
1364.53,1607.00
1366.82,1667.00
1369.10,1591.00
1371.39,1576.00
1373.67,1531.00
1375.94,1425.00
1378.22,1357.00
1380.50,1377.00
1382.77,1348.00
1385.04,1291.00
1387.31,1290.00
1389.57,1248.00
1391.84,1206.00
1394.10,1062.00
1396.36,1111.00
1398.62,1043.00
1400.88,948.00
1403.14,929.00
1405.39,1067.00
1407.64,915.00
1409.89,923.00
1412.14,911.00
1414.38,929.00
1416.63,913.00
1418.87,978.00
1421.11,907.00
1423.34,835.00
1425.58,860.00
1427.81,822.00
1430.05,818.00
1432.27,839.00
1434.50,856.00
1436.73,953.00
1438.95,860.00
1441.17,824.00
1443.39,867.00
1445.61,852.00
1447.83,985.00
1450.04,1025.00
1452.26,1092.00
1454.47,1158.00
1456.67,1257.00
1458.88,1246.00
1461.09,1240.00
1463.29,1227.00
1465.49,1157.00
1467.69,1071.00
1469.88,1008.00
1472.08,867.00
1474.27,827.00
1476.46,793.00
1478.65,698.00
1480.84,681.00
1483.02,717.00
1485.21,670.00
1487.39,626.00
1489.57,646.00
1491.74,630.00
1493.92,633.00
1496.09,523.00
1498.27,643.00
1500.43,633.00
1502.60,546.00
1504.77,565.00
1506.93,605.00
1509.09,597.00
1511.25,608.00
1513.41,677.00
1515.57,582.00
1517.72,547.00
1519.87,591.00
1522.02,652.00
1524.17,588.00
1526.32,548.00
1528.46,573.00
1530.60,632.00
1532.74,617.00
1534.88,614.00
1537.02,639.00
1539.15,574.00
1541.29,730.00
1543.42,631.00
1545.55,615.00
1547.67,557.00
1549.80,689.00
1551.92,650.00
1554.04,582.00
1556.16,651.00
1558.28,630.00
1560.39,714.00
1562.51,679.00
1564.62,677.00
1566.73,660.00
1568.83,724.00
1570.94,689.00
1573.04,745.00
1575.15,711.00
1577.24,774.00
1579.34,652.00
1581.44,726.00
1583.53,780.00
1585.62,784.00
1587.71,719.00
1589.80,875.00
1591.89,889.00
1593.97,871.00
1596.05,827.00
1598.13,907.00
1600.21,867.00
1602.29,888.00
1604.36,928.00
1606.44,962.00
1608.51,991.00
1610.58,1014.00
1612.64,917.00
1614.71,1035.00
1616.77,1014.00
1618.83,1010.00
1620.89,1098.00
1622.95,997.00
1625.00,1122.00
1627.06,1040.00
1629.11,1079.00
1631.16,1040.00
1633.20,1107.00
1635.25,1062.00
1637.29,1082.00
1639.33,1135.00
1641.37,1079.00
1643.41,1048.00
1645.45,1071.00
1647.48,1139.00
1649.51,1059.00
1651.54,1002.00
1653.57,987.00
1655.60,1054.00
1657.62,1031.00
1659.64,955.00
1661.66,989.00
1663.68,943.00
1665.70,894.00
1667.71,799.00
1669.73,848.00
1671.74,885.00
1673.74,826.00
1675.75,841.00
1677.76,814.00
1679.76,770.00
1681.76,771.00
1683.76,778.00
1685.76,693.00
1687.75,637.00
1689.74,647.00
1691.74,687.00
1693.73,656.00
1695.71,613.00
1697.70,568.00
1699.68,595.00
1701.66,480.00
1703.64,511.00
1705.62,508.00
1707.60,484.00
1709.57,447.00
1711.54,531.00
1713.51,439.00
1715.48,506.00
1717.45,438.00
1719.41,430.00
1721.37,398.00
1723.33,421.00
1725.29,335.00
1727.25,340.00
1729.20,442.00
1731.16,354.00
1733.11,380.00
1735.06,344.00
1737.00,360.00
1738.95,345.00
1740.89,322.00
1742.83,284.00
1744.77,310.00
1746.71,335.00
1748.64,308.00
1750.58,294.00
1752.51,307.00
1754.44,291.00
1756.37,314.00
1758.29,276.00
1760.22,355.00
1762.14,242.00
1764.06,297.00
1765.98,270.00
1767.89,272.00
1769.81,265.00
1771.72,226.00
1773.63,229.00
1775.54,243.00
1777.44,257.00
1779.35,210.00
1781.25,170.00
1783.15,215.00
1785.05,206.00
1786.95,253.00
1788.84,283.00
1790.73,192.00
1792.63,236.00
1794.51,173.00
1796.40,177.00
1798.29,224.00
1800.17,245.00
1802.05,246.00
1803.93,270.00
1805.81,133.00
1807.68,207.00
1809.56,228.00
1811.43,217.00
1813.30,211.00
1815.17,185.00
1817.03,215.00
1818.90,187.00
1820.76,206.00
1822.62,135.00
1824.48,158.00
1826.33,144.00
1828.19,145.00
1830.04,177.00
1831.89,196.00
1833.74,215.00
1835.59,217.00
1837.43,185.00
1839.28,147.00
1841.12,179.00
1842.96,180.00
1844.79,160.00
1846.63,135.00
1848.46,169.00
1850.29,177.00
1852.12,182.00
1853.95,165.00
1855.78,176.00
1857.60,167.00
1859.42,164.00
1861.24,89.00
1863.06,160.00
1864.88,116.00
1866.69,190.00
1868.50,160.00
1870.31,171.00
1872.12,146.00
1873.93,141.00
1875.73,162.00
1877.53,150.00
1879.33,127.00
1881.13,121.00
1882.93,128.00
1884.72,173.00
1886.52,116.00
1888.31,139.00
1890.10,168.00
1891.88,97.00
1893.67,158.00
1895.45,156.00
1897.24,108.00
1899.01,122.00
1900.79,169.00
1902.57,125.00
1904.34,118.00
1906.11,187.00
1907.88,144.00
1909.65,126.00
1911.42,126.00
1913.18,126.00
1914.94,114.00
1916.70,114.00
1918.46,181.00
1920.22,105.00
1921.97,108.00
1923.73,114.00
1925.48,137.00
1927.23,169.00
1928.97,118.00
1930.72,111.00
1932.46,162.00
1934.20,116.00
1935.94,162.00
1937.68,106.00
1939.41,147.00
1941.15,151.00
1942.88,106.00
1944.61,140.00
1946.34,131.00
1948.06,125.00
1949.79,161.00
1951.51,140.00
1953.23,169.00
1954.95,159.00
1956.66,162.00
1958.38,154.00
1960.09,133.00
1961.80,146.00
1963.51,135.00
1965.22,82.00
1966.92,196.00
1968.62,119.00
1970.32,181.00
1972.02,128.00
1973.72,143.00
1975.42,133.00
1977.11,135.00
1978.80,134.00
1980.49,164.00
1982.18,129.00
1983.86,162.00
1985.55,137.00
1987.23,122.00
1988.91,175.00
1990.59,125.00
1992.26,150.00
1993.94,127.00
1995.61,186.00
1997.28,151.00
1998.95,175.00
2000.61,131.00
2002.28,148.00
2003.94,137.00
2005.60,122.00
2007.26,116.00
2008.92,151.00
2010.57,119.00
2012.22,139.00
2013.87,120.00
2015.52,169.00
2017.17,148.00
2018.82,125.00
2020.46,102.00
2022.10,141.00
2023.74,170.00
2025.38,177.00
2027.01,133.00
2028.65,198.00
2030.28,106.00
2031.91,151.00
2033.54,123.00
2035.16,95.00
2036.79,139.00
2038.41,126.00
2040.03,143.00
2041.65,154.00
2043.27,131.00
2044.88,150.00
2046.49,165.00
2048.10,143.00
2049.71,133.00
2051.32,144.00
2052.93,160.00
2054.53,129.00
2056.13,120.00
2057.73,131.00
2059.33,160.00
2060.92,162.00
2062.52,156.00
2064.11,204.00
2065.70,145.00
2067.29,154.00
2068.87,149.00
2070.46,164.00
2072.04,173.00
2073.62,159.00
2075.20,135.00
2076.77,131.00
2078.35,148.00
2079.92,139.00
2081.49,124.00
2083.06,141.00
2084.63,118.00
2086.19,120.00
2087.75,144.00
2089.32,154.00
2090.87,173.00
2092.43,144.00
2093.99,167.00
2095.54,-46.00
2097.09,147.00
2098.64,143.00
2100.19,161.00
2101.74,139.00
2103.28,146.00
2104.82,126.00
2106.36,175.00
2107.90,147.00
2109.44,152.00
2110.97,183.00
2112.50,179.00
2114.03,148.00
2115.56,145.00
2117.09,107.00
2118.61,97.00
2120.14,118.00
2121.66,139.00
2123.18,135.00
2124.69,143.00
2126.21,152.00
2127.72,162.00
2129.23,110.00
2130.74,154.00
2132.25,144.00
2133.76,131.00
2135.26,89.00
2136.76,151.00
2138.26,140.00
2139.76,99.00
2141.25,99.00
2142.75,150.00
2144.24,141.00
2145.73,116.00
2147.22,114.00
2148.71,110.00
2150.19,102.00
2151.67,128.00
2153.15,139.00
2154.63,120.00
2156.11,154.00
2157.58,124.00
2159.06,135.00
2160.53,83.00
2162.00,129.00
2163.47,112.00
2164.93,144.00
2166.39,137.00
2167.86,120.00
2169.32,131.00
2170.77,122.00
2172.23,93.00
2173.68,114.00
2175.14,95.00
2176.59,89.00
2178.03,97.00
2179.48,85.00
2180.92,86.00
2182.37,72.00
2183.81,86.00
2185.25,97.00
2186.68,89.00
2188.12,78.00
2189.55,120.00
2190.98,92.00
2192.41,99.00
2193.84,90.00
2195.26,85.00
2196.69,104.00
2198.11,97.00
2199.53,84.00
2200.94,78.00
2202.36,74.00
2203.77,72.00
2205.19,95.00
2206.60,47.00
2208.00,30.00
2209.41,65.00
2210.81,82.00
2212.22,97.00
2213.62,86.00
2215.01,99.00
2216.41,80.00
2217.81,53.00
2219.20,35.00
2220.59,77.00
