ENLIGHTEN Version,1.6.8
Measurement ID,20190528-110056-788510-WP-00357
Serial Number,WP-00357
Label,Isopropanol
Integration Time,7
Timestamp,2019-05-28 11:00:56.788510
Note,
Temperature,-99
CCD C0,801.1829833984375
CCD C1,0.12474799901247025
CCD C2,-2.2862799596623518e-05
CCD C3,4.907460215974879e-09
CCD Offset,0
CCD Gain,1.9
Laser Wavelength,785.0
Laser Enable,False
Laser Power,100.0
Laser Temperature,-99
Pixel Count,1952

Wavenumber,Processed
257.31,0.00
259.25,0.00
261.19,0.00
263.13,210.00
265.07,-28.00
267.01,35.00
268.95,230.00
270.88,-33.00
272.82,460.00
274.75,-20.00
276.68,360.00
278.61,-166.00
280.54,279.00
282.46,-648.00
284.39,111.00
286.31,206.00
288.24,43.00
290.16,429.00
292.08,-52.00
294.00,282.00
295.92,-236.00
297.83,51.00
299.75,460.00
301.66,2.00
303.58,-234.00
305.49,13.00
307.40,267.00
309.31,-230.00
311.22,555.00
313.12,489.00
315.03,-24.00
316.93,-167.00
318.83,383.00
320.73,-453.00
322.63,247.00
324.53,-261.00
326.43,59.00
328.33,107.00
330.22,-131.00
332.12,463.00
334.01,131.00
335.90,143.00
337.79,128.00
339.68,-262.00
341.57,-20.00
343.45,-295.00
345.34,339.00
347.22,6.00
349.10,191.00
350.98,486.00
352.86,256.00
354.74,221.00
356.62,-152.00
358.50,-70.00
360.37,-282.00
362.24,204.00
364.12,543.00
365.99,409.00
367.86,280.00
369.73,308.00
371.59,515.00
373.46,538.00
375.33,87.00
377.19,523.00
379.05,684.00
380.91,140.00
382.77,711.00
384.63,792.00
386.49,477.00
388.35,952.00
390.20,509.00
392.06,1800.00
393.91,340.00
395.76,1736.00
397.61,1021.00
399.46,994.00
401.31,776.00
403.15,1118.00
405.00,1526.00
406.84,937.00
408.69,1303.00
410.53,1550.00
412.37,1994.00
414.21,2001.00
416.05,1285.00
417.88,2507.00
419.72,1898.00
421.55,2728.00
423.39,2829.00
425.22,3066.00
427.05,3487.00
428.88,3238.00
430.71,3461.00
432.54,2595.00
434.36,2651.00
436.19,2717.00
438.01,2844.00
439.83,2450.00
441.65,2170.00
443.48,1893.00
445.29,2782.00
447.11,2651.00
448.93,2435.00
450.74,1500.00
452.56,1744.00
454.37,1321.00
456.18,1643.00
457.99,976.00
459.80,1081.00
461.61,1221.00
463.42,1182.00
465.23,2225.00
467.03,1133.00
468.83,1282.00
470.64,1898.00
472.44,1977.00
474.24,1533.00
476.04,801.00
477.84,1144.00
479.63,2252.00
481.43,2971.00
483.22,2718.00
485.02,2899.00
486.81,3224.00
488.60,3323.00
490.39,2983.00
492.18,2532.00
493.96,2110.00
495.75,2444.00
497.54,2050.00
499.32,1569.00
501.10,1799.00
502.88,1933.00
504.67,1528.00
506.45,1019.00
508.22,1734.00
510.00,667.00
511.78,1590.00
513.55,1094.00
515.33,-97.00
517.10,892.00
518.87,1662.00
520.64,346.00
522.41,994.00
524.18,263.00
525.94,487.00
527.71,1182.00
529.47,454.00
531.24,565.00
533.00,1205.00
534.76,234.00
536.52,5.00
538.28,902.00
540.04,299.00
541.80,471.00
543.55,958.00
545.31,-115.00
547.06,932.00
548.81,838.00
550.56,521.00
552.31,292.00
554.06,539.00
555.81,898.00
557.56,479.00
559.30,99.00
561.05,669.00
562.79,756.00
564.53,1060.00
566.28,151.00
568.02,1259.00
569.75,-152.00
571.49,319.00
573.23,894.00
574.97,763.00
576.70,566.00
578.43,1198.00
580.17,709.00
581.90,730.00
583.63,1077.00
585.36,343.00
587.09,447.00
588.81,348.00
590.54,-59.00
592.26,1062.00
593.99,180.00
595.71,665.00
597.43,557.00
599.15,862.00
600.87,-226.00
602.59,666.00
604.31,157.00
606.02,546.00
607.74,830.00
609.45,732.00
611.17,1105.00
612.88,155.00
614.59,840.00
616.30,596.00
618.01,406.00
619.71,586.00
621.42,21.00
623.13,670.00
624.83,607.00
626.53,442.00
628.24,1109.00
629.94,816.00
631.64,940.00
633.34,324.00
635.04,613.00
636.73,456.00
638.43,1605.00
640.12,905.00
641.82,1303.00
643.51,1161.00
645.20,616.00
646.89,800.00
648.58,513.00
650.27,913.00
651.96,106.00
653.65,1010.00
655.33,1244.00
657.02,1515.00
658.70,176.00
660.38,871.00
662.06,741.00
663.74,420.00
665.42,1181.00
667.10,831.00
668.78,784.00
670.45,880.00
672.13,923.00
673.80,650.00
675.48,450.00
677.15,1009.00
678.82,1472.00
680.49,1044.00
682.16,563.00
683.83,1372.00
685.49,962.00
687.16,681.00
688.82,801.00
690.49,76.00
692.15,601.00
693.81,112.00
695.47,801.00
697.13,1172.00
698.79,170.00
700.45,871.00
702.11,743.00
703.76,484.00
705.42,25.00
707.07,1250.00
708.72,1146.00
710.37,997.00
712.02,512.00
713.67,695.00
715.32,623.00
716.97,768.00
718.62,497.00
720.26,51.00
721.91,-91.00
723.55,569.00
725.19,663.00
726.84,953.00
728.48,1312.00
730.12,736.00
731.75,702.00
733.39,902.00
735.03,722.00
736.66,175.00
738.30,759.00
739.93,792.00
741.57,933.00
743.20,522.00
744.83,661.00
746.46,342.00
748.09,188.00
749.71,1278.00
751.34,285.00
752.97,202.00
754.59,951.00
756.22,704.00
757.84,877.00
759.46,756.00
761.08,1050.00
762.70,318.00
764.32,407.00
765.94,1253.00
767.56,837.00
769.17,743.00
770.79,1283.00
772.40,370.00
774.01,1038.00
775.63,473.00
777.24,1228.00
778.85,569.00
780.46,1409.00
782.07,294.00
783.67,580.00
785.28,1853.00
786.88,1017.00
788.49,1328.00
790.09,1462.00
791.70,746.00
793.30,1833.00
794.90,1196.00
796.50,3296.00
798.10,2059.00
799.69,2730.00
801.29,4783.00
802.89,4803.00
804.48,7652.00
806.08,8485.00
807.67,12146.00
809.26,16606.00
810.85,22358.00
812.44,27605.00
814.03,33902.00
815.62,38082.00
817.21,42071.00
818.79,41837.00
820.38,42216.00
821.96,37022.00
823.55,34616.00
825.13,27526.00
826.71,22316.00
828.29,16711.00
829.87,12719.00
831.45,9894.00
833.03,7128.00
834.61,4642.00
836.18,4251.00
837.76,3053.00
839.33,2572.00
840.91,2747.00
842.48,2755.00
844.05,1445.00
845.62,2085.00
847.19,1538.00
848.76,1641.00
850.33,1458.00
851.90,2077.00
853.46,1326.00
855.03,1613.00
856.59,526.00
858.15,698.00
859.72,1250.00
861.28,1861.00
862.84,578.00
864.40,1728.00
865.96,112.00
867.52,1174.00
869.07,885.00
870.63,572.00
872.18,939.00
873.74,1119.00
875.29,646.00
876.84,1524.00
878.40,1004.00
879.95,486.00
881.50,1311.00
883.04,2246.00
884.59,282.00
886.14,648.00
887.69,1748.00
889.23,914.00
890.78,1130.00
892.32,1409.00
893.86,787.00
895.40,1955.00
896.94,1428.00
898.48,812.00
900.02,1308.00
901.56,1454.00
903.10,1629.00
904.63,1705.00
906.17,987.00
907.70,2023.00
909.24,1677.00
910.77,1851.00
912.30,1893.00
913.83,2464.00
915.36,2688.00
916.89,2429.00
918.42,2738.00
919.95,1916.00
921.48,3033.00
923.00,4000.00
924.53,4423.00
926.05,3770.00
927.57,3551.00
929.10,4456.00
930.62,5112.00
932.14,5603.00
933.66,4692.00
935.18,5014.00
936.70,6251.00
938.21,5872.00
939.73,7807.00
941.24,8600.00
942.76,8266.00
944.27,9221.00
945.79,8188.00
947.30,8480.00
948.81,9313.00
950.32,9758.00
951.83,9159.00
953.34,9446.00
954.84,8347.00
956.35,9134.00
957.86,7647.00
959.36,7822.00
960.87,4930.00
962.37,5359.00
963.87,5186.00
965.37,4886.00
966.88,3059.00
968.38,3938.00
969.87,2714.00
971.37,1870.00
972.87,1912.00
974.37,2424.00
975.86,1744.00
977.36,701.00
978.85,1934.00
980.35,857.00
981.84,1664.00
983.33,1020.00
984.82,1722.00
986.31,1797.00
987.80,1750.00
989.29,1103.00
990.77,596.00
992.26,1016.00
993.75,450.00
995.23,631.00
996.72,692.00
998.20,462.00
999.68,1480.00
1001.16,1059.00
1002.64,683.00
1004.12,1031.00
1005.60,236.00
1007.08,1276.00
1008.56,823.00
1010.04,428.00
1011.51,888.00
1012.99,537.00
1014.46,780.00
1015.93,1105.00
1017.41,605.00
1018.88,-46.00
1020.35,688.00
1021.82,1353.00
1023.29,817.00
1024.76,1487.00
1026.23,1005.00
1027.69,1048.00
1029.16,835.00
1030.62,438.00
1032.09,87.00
1033.55,250.00
1035.02,181.00
1036.48,389.00
1037.94,583.00
1039.40,363.00
1040.86,207.00
1042.32,79.00
1043.78,219.00
1045.23,362.00
1046.69,725.00
1048.15,335.00
1049.60,622.00
1051.05,580.00
1052.51,1071.00
1053.96,888.00
1055.41,742.00
1056.86,-245.00
1058.31,94.00
1059.76,952.00
1061.21,1400.00
1062.66,158.00
1064.10,791.00
1065.55,419.00
1067.00,1032.00
1068.44,1048.00
1069.88,1659.00
1071.33,390.00
1072.77,410.00
1074.21,886.00
1075.65,1159.00
1077.09,904.00
1078.53,578.00
1079.97,1128.00
1081.41,1115.00
1082.84,1306.00
1084.28,525.00
1085.71,1130.00
1087.15,865.00
1088.58,1529.00
1090.02,1712.00
1091.45,2014.00
1092.88,1318.00
1094.31,2072.00
1095.74,1759.00
1097.17,2948.00
1098.60,1479.00
1100.02,2484.00
1101.45,3017.00
1102.88,3748.00
1104.30,3707.00
1105.73,3454.00
1107.15,3370.00
1108.57,3934.00
1109.99,3503.00
1111.42,5127.00
1112.84,4482.00
1114.26,4146.00
1115.68,5305.00
1117.09,4594.00
1118.51,5078.00
1119.93,5353.00
1121.34,6118.00
1122.76,5705.00
1124.17,5699.00
1125.59,6537.00
1127.00,5442.00
1128.41,6550.00
1129.82,6191.00
1131.24,5793.00
1132.65,5510.00
1134.05,5334.00
1135.46,6071.00
1136.87,6558.00
1138.28,5892.00
1139.68,5515.00
1141.09,4441.00
1142.50,4680.00
1143.90,4231.00
1145.30,3918.00
1146.71,3426.00
1148.11,4103.00
1149.51,2237.00
1150.91,3704.00
1152.31,3683.00
1153.71,3399.00
1155.11,3511.00
1156.50,3868.00
1157.90,2609.00
1159.30,4300.00
1160.69,4175.00
1162.08,4813.00
1163.48,3767.00
1164.87,3441.00
1166.26,3445.00
1167.66,3353.00
1169.05,3503.00
1170.44,3177.00
1171.83,2840.00
1173.21,2755.00
1174.60,2627.00
1175.99,2310.00
1177.38,2333.00
1178.76,2185.00
1180.15,1723.00
1181.53,1807.00
1182.92,2083.00
1184.30,1332.00
1185.68,1730.00
1187.06,1343.00
1188.44,1219.00
1189.82,1333.00
1191.20,1646.00
1192.58,1497.00
1193.96,725.00
1195.34,885.00
1196.71,999.00
1198.09,687.00
1199.46,583.00
1200.84,1680.00
1202.21,768.00
1203.58,963.00
1204.96,507.00
1206.33,1101.00
1207.70,979.00
1209.07,801.00
1210.44,584.00
1211.81,239.00
1213.17,1028.00
1214.54,1024.00
1215.91,531.00
1217.27,1503.00
1218.64,879.00
1220.00,1681.00
1221.37,1324.00
1222.73,553.00
1224.09,1338.00
1225.45,1269.00
1226.82,716.00
1228.18,525.00
1229.54,793.00
1230.89,638.00
1232.25,643.00
1233.61,80.00
1234.97,750.00
1236.32,1806.00
1237.68,1101.00
1239.03,1002.00
1240.39,968.00
1241.74,1139.00
1243.09,360.00
1244.45,1290.00
1245.80,913.00
1247.15,1032.00
1248.50,903.00
1249.85,456.00
1251.20,1006.00
1252.54,580.00
1253.89,642.00
1255.24,204.00
1256.58,314.00
1257.93,1018.00
1259.27,54.00
1260.62,300.00
1261.96,295.00
1263.30,155.00
1264.64,902.00
1265.98,829.00
1267.33,455.00
1268.67,372.00
1270.00,812.00
1271.34,301.00
1272.68,623.00
1274.02,1250.00
1275.35,828.00
1276.69,903.00
1278.03,1905.00
1279.36,932.00
1280.69,2008.00
1282.03,1087.00
1283.36,1152.00
1284.69,1039.00
1286.02,1154.00
1287.35,878.00
1288.68,1101.00
1290.01,939.00
1291.34,1601.00
1292.67,1419.00
1294.00,2257.00
1295.32,1772.00
1296.65,975.00
1297.97,1453.00
1299.30,1934.00
1300.62,1668.00
1301.94,1501.00
1303.27,1254.00
1304.59,1461.00
1305.91,1694.00
1307.23,1888.00
1308.55,2286.00
1309.87,1739.00
1311.19,1937.00
1312.51,1071.00
1313.82,2141.00
1315.14,2186.00
1316.46,1731.00
1317.77,1561.00
1319.09,2119.00
1320.40,1956.00
1321.72,1950.00
1323.03,1612.00
1324.34,1995.00
1325.65,1933.00
1326.96,2841.00
1328.27,2076.00
1329.58,2257.00
1330.89,2128.00
1332.20,2934.00
1333.51,2919.00
1334.82,3316.00
1336.12,2064.00
1337.43,2586.00
1338.73,2223.00
1340.04,3009.00
1341.34,2231.00
1342.65,2919.00
1343.95,3404.00
1345.25,2231.00
1346.55,2998.00
1347.85,3242.00
1349.15,2015.00
1350.45,2546.00
1351.75,1377.00
1353.05,2021.00
1354.35,3096.00
1355.65,2101.00
1356.94,2344.00
1358.24,1602.00
1359.53,2110.00
1360.83,1326.00
1362.12,1855.00
1363.42,2221.00
1364.71,1988.00
1366.00,2382.00
1367.29,2143.00
1368.58,1826.00
1369.87,1451.00
1371.16,971.00
1372.45,2062.00
1373.74,1863.00
1375.03,2398.00
1376.32,1340.00
1377.60,1364.00
1378.89,1713.00
1380.17,908.00
1381.46,1576.00
1382.74,1146.00
1384.03,2158.00
1385.31,2318.00
1386.59,1786.00
1387.87,1763.00
1389.15,1914.00
1390.43,1632.00
1391.71,2059.00
1392.99,1823.00
1394.27,2387.00
1395.55,1695.00
1396.83,2443.00
1398.11,2710.00
1399.38,2016.00
1400.66,1809.00
1401.93,1886.00
1403.21,2851.00
1404.48,2950.00
1405.75,3124.00
1407.03,3151.00
1408.30,3713.00
1409.57,3125.00
1410.84,3256.00
1412.11,3579.00
1413.38,3802.00
1414.65,3683.00
1415.92,3569.00
1417.19,3591.00
1418.46,3096.00
1419.72,2981.00
1420.99,3237.00
1422.25,3369.00
1423.52,3669.00
1424.78,4355.00
1426.05,3649.00
1427.31,4343.00
1428.57,3856.00
1429.84,4895.00
1431.10,5282.00
1432.36,4429.00
1433.62,4917.00
1434.88,6014.00
1436.14,5219.00
1437.40,6915.00
1438.65,5307.00
1439.91,6598.00
1441.17,7390.00
1442.43,8280.00
1443.68,8934.00
1444.94,9042.00
1446.19,9978.00
1447.44,9323.00
1448.70,9740.00
1449.95,9338.00
1451.20,10035.00
1452.46,10640.00
1453.71,9997.00
1454.96,9150.00
1456.21,9236.00
1457.46,9772.00
1458.71,7980.00
1459.95,10304.00
1461.20,9258.00
1462.45,9545.00
1463.70,7826.00
1464.94,8987.00
1466.19,8937.00
1467.43,8024.00
1468.68,6742.00
1469.92,6453.00
1471.16,6145.00
1472.41,6091.00
1473.65,5591.00
1474.89,5133.00
1476.13,4185.00
1477.37,3604.00
1478.61,4201.00
1479.85,3360.00
1481.09,3285.00
1482.33,2394.00
1483.57,2661.00
1484.80,3386.00
1486.04,2934.00
1487.28,1801.00
1488.51,2601.00
1489.75,2183.00
1490.98,2259.00
1492.21,2127.00
1493.45,2420.00
1494.68,2228.00
1495.91,1791.00
1497.14,1882.00
1498.37,1635.00
1499.61,1786.00
1500.84,831.00
1502.06,1188.00
1503.29,820.00
1504.52,1117.00
1505.75,1367.00
1506.98,1025.00
1508.20,1416.00
1509.43,221.00
1510.66,759.00
1511.88,589.00
1513.11,1095.00
1514.33,1506.00
1515.55,484.00
1516.78,1545.00
1518.00,1146.00
1519.22,743.00
1520.44,1041.00
1521.66,443.00
1522.88,439.00
1524.10,510.00
1525.32,985.00
1526.54,744.00
1527.76,632.00
1528.98,551.00
1530.19,1014.00
1531.41,1244.00
1532.63,860.00
1533.84,376.00
1535.06,352.00
1536.27,311.00
1537.48,-427.00
1538.70,-229.00
1539.91,-75.00
1541.12,405.00
1542.33,381.00
1543.55,487.00
1544.76,236.00
1545.97,598.00
1547.18,1326.00
1548.39,679.00
1549.59,364.00
1550.80,728.00
1552.01,325.00
1553.22,708.00
1554.42,-559.00
1555.63,257.00
1556.84,1388.00
1558.04,-218.00
1559.24,614.00
1560.45,120.00
1561.65,737.00
1562.86,350.00
1564.06,-1.00
1565.26,551.00
1566.46,583.00
1567.66,1385.00
1568.86,810.00
1570.06,99.00
1571.26,555.00
1572.46,-7.00
1573.66,285.00
1574.86,471.00
1576.05,648.00
1577.25,-117.00
1578.45,-366.00
1579.64,111.00
1580.84,801.00
1582.03,38.00
1583.23,-186.00
1584.42,659.00
1585.61,-65.00
1586.81,112.00
1588.00,-74.00
1589.19,-140.00
1590.38,-58.00
1591.57,271.00
1592.76,252.00
1593.95,377.00
1595.14,106.00
1596.33,-54.00
1597.52,850.00
1598.71,180.00
1599.90,517.00
1601.08,313.00
1602.27,-51.00
1603.45,636.00
1604.64,821.00
1605.83,473.00
1607.01,431.00
1608.19,-223.00
1609.38,882.00
1610.56,114.00
1611.74,556.00
1612.92,971.00
1614.11,376.00
1615.29,412.00
1616.47,60.00
1617.65,-233.00
1618.83,-154.00
1620.01,497.00
1621.18,463.00
1622.36,1007.00
1623.54,-176.00
1624.72,739.00
1625.89,306.00
1627.07,177.00
1628.25,927.00
1629.42,336.00
1630.60,768.00
1631.77,812.00
1632.94,333.00
1634.12,1060.00
1635.29,-142.00
1636.46,563.00
1637.63,107.00
1638.80,409.00
1639.98,47.00
1641.15,249.00
1642.32,24.00
1643.49,-378.00
1644.65,3.00
1645.82,537.00
1646.99,425.00
1648.16,212.00
1649.33,383.00
1650.49,372.00
1651.66,942.00
1652.82,193.00
1653.99,-50.00
1655.15,-160.00
1656.32,672.00
1657.48,390.00
1658.65,87.00
1659.81,791.00
1660.97,250.00
1662.13,131.00
1663.29,883.00
1664.45,561.00
1665.62,507.00
1666.78,194.00
1667.94,-71.00
1669.09,-99.00
1670.25,676.00
1671.41,510.00
1672.57,332.00
1673.73,43.00
1674.88,387.00
1676.04,535.00
1677.20,248.00
1678.35,-132.00
1679.51,-489.00
1680.66,353.00
1681.82,-206.00
1682.97,149.00
1684.12,625.00
1685.27,-651.00
1686.43,-107.00
1687.58,346.00
1688.73,-368.00
1689.88,54.00
1691.03,1086.00
1692.18,376.00
1693.33,1226.00
1694.48,12.00
1695.63,707.00
1696.78,2.00
1697.93,733.00
1699.07,357.00
1700.22,-13.00
1701.37,1136.00
1702.51,705.00
1703.66,121.00
1704.80,-360.00
1705.95,-49.00
1707.09,-44.00
1708.24,466.00
1709.38,618.00
1710.52,538.00
1711.67,602.00
1712.81,183.00
1713.95,45.00
1715.09,-91.00
1716.23,276.00
1717.37,-5.00
1718.51,534.00
1719.65,-435.00
1720.79,943.00
1721.93,-98.00
1723.07,412.00
1724.20,479.00
1725.34,648.00
1726.48,954.00
1727.62,297.00
1728.75,648.00
1729.89,-170.00
1731.02,629.00
1732.16,752.00
1733.29,676.00
1734.43,-52.00
1735.56,584.00
1736.69,-42.00
1737.82,1052.00
1738.96,631.00
1740.09,247.00
1741.22,626.00
1742.35,1041.00
1743.48,-948.00
1744.61,713.00
1745.74,-56.00
1746.87,603.00
1748.00,715.00
1749.13,-56.00
1750.25,-289.00
1751.38,-310.00
1752.51,358.00
1753.64,-538.00
1754.76,-273.00
1755.89,538.00
1757.01,-295.00
1758.14,415.00
1759.26,585.00
1760.39,582.00
1761.51,464.00
1762.63,415.00
1763.76,628.00
1764.88,462.00
1766.00,256.00
1767.12,185.00
1768.24,44.00
1769.37,181.00
1770.49,-154.00
1771.61,118.00
1772.73,65.00
1773.85,230.00
1774.96,74.00
1776.08,56.00
1777.20,101.00
1778.32,403.00
1779.44,25.00
1780.55,-45.00
1781.67,426.00
1782.78,619.00
1783.90,-444.00
1785.01,187.00
1786.13,602.00
1787.24,233.00
1788.36,703.00
1789.47,439.00
1790.58,-88.00
1791.70,306.00
1792.81,755.00
1793.92,33.00
1795.03,167.00
1796.14,-364.00
1797.26,-254.00
1798.37,-125.00
1799.48,9.00
1800.58,-127.00
1801.69,-335.00
1802.80,-435.00
1803.91,-102.00
1805.02,778.00
1806.13,436.00
1807.23,-310.00
1808.34,113.00
1809.45,157.00
1810.55,171.00
1811.66,8.00
1812.76,487.00
1813.87,46.00
1814.97,686.00
1816.08,-321.00
1817.18,536.00
1818.28,186.00
1819.39,404.00
1820.49,368.00
1821.59,13.00
1822.69,115.00
1823.79,794.00
1824.90,-293.00
1826.00,-40.00
1827.10,77.00
1828.20,-609.00
1829.30,442.00
1830.39,198.00
1831.49,81.00
1832.59,-85.00
1833.69,302.00
1834.79,122.00
1835.88,4.00
1836.98,-153.00
1838.08,408.00
1839.17,182.00
1840.27,-65.00
1841.36,-395.00
1842.46,500.00
1843.55,344.00
1844.65,-82.00
1845.74,137.00
1846.83,40.00
1847.93,330.00
1849.02,-349.00
1850.11,204.00
1851.20,-557.00
1852.30,650.00
1853.39,469.00
1854.48,-20.00
1855.57,595.00
1856.66,352.00
1857.75,-110.00
1858.84,-20.00
1859.93,28.00
1861.01,74.00
1862.10,-32.00
1863.19,384.00
1864.28,-58.00
1865.37,324.00
1866.45,897.00
1867.54,122.00
1868.62,225.00
1869.71,125.00
1870.79,-205.00
1871.88,-53.00
1872.96,-90.00
1874.05,-17.00
1875.13,-72.00
1876.22,431.00
1877.30,79.00
1878.38,-219.00
1879.46,328.00
1880.55,-427.00
1881.63,-165.00
1882.71,223.00
1883.79,526.00
1884.87,972.00
1885.95,289.00
1887.03,676.00
1888.11,462.00
1889.19,353.00
1890.27,-28.00
1891.35,-83.00
1892.42,189.00
1893.50,-214.00
1894.58,212.00
1895.66,-196.00
1896.73,159.00
1897.81,131.00
1898.89,845.00
1899.96,-604.00
1901.04,438.00
1902.11,-22.00
1903.19,1008.00
1904.26,69.00
1905.33,-187.00
1906.41,109.00
1907.48,-1.00
1908.55,218.00
1909.63,547.00
1910.70,588.00
1911.77,1026.00
1912.84,9.00
1913.91,536.00
1914.98,-430.00
1916.05,10.00
1917.12,-109.00
1918.19,63.00
1919.26,-105.00
1920.33,211.00
1921.40,-1.00
1922.47,-226.00
1923.54,-290.00
1924.60,-590.00
1925.67,733.00
1926.74,-354.00
1927.80,-91.00
1928.87,-268.00
1929.94,-366.00
1931.00,477.00
1932.07,116.00
1933.13,-351.00
1934.20,-185.00
1935.26,370.00
1936.33,-209.00
1937.39,88.00
1938.45,-238.00
1939.52,165.00
1940.58,195.00
1941.64,4.00
1942.70,730.00
1943.76,-164.00
1944.83,-135.00
1945.89,-306.00
1946.95,-51.00
1948.01,205.00
1949.07,-129.00
1950.13,-220.00
1951.19,-273.00
1952.25,69.00
1953.30,-258.00
1954.36,212.00
1955.42,826.00
1956.48,-69.00
1957.54,-144.00
