ENLIGHTEN Version,1.6.8
Measurement ID,20190528-101907-980842-SIGD-0003
Serial Number,SIGD-0003
Label,Isopropanol
Integration Time,200
Timestamp,2019-05-28 10:19:07.980842
Note,
Temperature,-99
CCD C0,613.8702392578125
CCD C1,0.10380711406469345
CCD C2,-1.9689399778144434e-05
CCD C3,3.600099995892947e-09
CCD Offset,0
CCD Gain,1.9
Laser Wavelength,633.0
Laser Enable,True
Laser Power,100.0
Laser Temperature,-99
Pixel Count,1952

Wavenumber,Processed
-492.30,0.00
-489.55,0.00
-486.79,0.00
-484.04,192.00
-481.30,-125.00
-478.55,738.00
-475.81,426.00
-473.06,-135.00
-470.32,-232.00
-467.59,128.00
-464.85,209.00
-462.12,-131.00
-459.38,-306.00
-456.65,7.00
-453.93,-283.00
-451.20,502.00
-448.48,-498.00
-445.75,-166.00
-443.03,273.00
-440.31,597.00
-437.60,-278.00
-434.88,219.00
-432.17,56.00
-429.46,1.00
-426.75,251.00
-424.04,90.00
-421.34,-536.00
-418.64,-180.00
-415.93,-477.00
-413.24,-501.00
-410.54,652.00
-407.84,55.00
-405.15,776.00
-402.46,-99.00
-399.77,-514.00
-397.08,-309.00
-394.39,173.00
-391.71,226.00
-389.03,-1.00
-386.35,94.00
-383.67,-399.00
-380.99,-85.00
-378.32,-803.00
-375.65,210.00
-372.98,323.00
-370.31,-209.00
-367.64,143.00
-364.98,359.00
-362.31,78.00
-359.65,405.00
-356.99,-95.00
-354.33,-453.00
-351.68,-130.00
-349.03,9.00
-346.37,-78.00
-343.72,295.00
-341.08,486.00
-338.43,212.00
-335.78,-97.00
-333.14,4.00
-330.50,321.00
-327.86,165.00
-325.23,1057.00
-322.59,-714.00
-319.96,-269.00
-317.33,-115.00
-314.70,185.00
-312.07,279.00
-309.44,186.00
-306.82,-300.00
-304.20,345.00
-301.57,-27.00
-298.96,322.00
-296.34,-90.00
-293.72,444.00
-291.11,-213.00
-288.50,-172.00
-285.89,-238.00
-283.28,214.00
-280.68,-176.00
-278.07,-107.00
-275.47,449.00
-272.87,323.00
-270.27,75.00
-267.68,-362.00
-265.08,-304.00
-262.49,-520.00
-259.90,-569.00
-257.31,-219.00
-254.72,-427.00
-252.13,173.00
-249.55,170.00
-246.97,-93.00
-244.39,-500.00
-241.81,-540.00
-239.23,181.00
-236.65,-236.00
-234.08,-334.00
-231.51,301.00
-228.94,-375.00
-226.37,407.00
-223.81,-14.00
-221.24,365.00
-218.68,262.00
-216.12,-647.00
-213.56,-48.00
-211.00,-625.00
-208.45,44.00
-205.89,-293.00
-203.34,37.00
-200.79,251.00
-198.24,676.00
-195.69,637.00
-193.15,-402.00
-190.61,152.00
-188.06,-199.00
-185.52,70.00
-182.99,-532.00
-180.45,319.00
-177.92,673.00
-175.38,-371.00
-172.85,-9.00
-170.32,289.00
-167.79,442.00
-165.27,157.00
-162.74,268.00
-160.22,205.00
-157.70,33.00
-155.18,419.00
-152.66,45.00
-150.15,-138.00
-147.64,346.00
-145.12,-448.00
-142.61,-139.00
-140.10,236.00
-137.60,-280.00
-135.09,139.00
-132.59,-593.00
-130.09,454.00
-127.59,560.00
-125.09,145.00
-122.59,-355.00
-120.10,127.00
-117.60,-132.00
-115.11,-123.00
-112.62,-369.00
-110.13,4.00
-107.65,-211.00
-105.16,477.00
-102.68,649.00
-100.20,-522.00
-97.72,453.00
-95.24,-256.00
-92.76,181.00
-90.29,-148.00
-87.82,377.00
-85.35,309.00
-82.88,-536.00
-80.41,3.00
-77.94,223.00
-75.48,-43.00
-73.01,379.00
-70.55,795.00
-68.09,-60.00
-65.64,16.00
-63.18,-415.00
-60.73,677.00
-58.27,228.00
-55.82,141.00
-53.37,-653.00
-50.92,214.00
-48.48,244.00
-46.03,386.00
-43.59,-99.00
-41.15,184.00
-38.71,440.00
-36.27,638.00
-33.83,288.00
-31.40,453.00
-28.97,165.00
-26.53,-518.00
-24.10,472.00
-21.68,-93.00
-19.25,-372.00
-16.82,-309.00
-14.40,-568.00
-11.98,654.00
-9.56,148.00
-7.14,178.00
-4.72,210.00
-2.31,564.00
0.10,162.00
2.52,174.00
4.93,176.00
7.34,419.00
9.74,-31.00
12.15,-450.00
14.55,62.00
16.95,216.00
19.36,383.00
21.75,446.00
24.15,-386.00
26.55,419.00
28.94,-205.00
31.34,-48.00
33.73,-382.00
36.12,311.00
38.50,-137.00
40.89,-505.00
43.27,-337.00
45.66,96.00
48.04,351.00
50.42,399.00
52.80,-550.00
55.17,150.00
57.55,400.00
59.92,-345.00
62.30,170.00
64.67,177.00
67.04,-95.00
69.40,-60.00
71.77,-365.00
74.13,149.00
76.50,79.00
78.86,-13.00
81.22,342.00
83.57,180.00
85.93,475.00
88.29,-104.00
90.64,150.00
92.99,462.00
95.34,8.00
97.69,41.00
100.04,167.00
102.38,311.00
104.73,-184.00
107.07,21.00
109.41,-340.00
111.75,630.00
114.09,3.00
116.42,126.00
118.76,-184.00
121.09,-79.00
123.42,-55.00
125.75,-21.00
128.08,-95.00
130.41,113.00
132.74,266.00
135.06,-98.00
137.38,125.00
139.70,377.00
142.02,162.00
144.34,211.00
146.66,419.00
148.97,763.00
151.29,614.00
153.60,166.00
155.91,-862.00
158.22,641.00
160.52,-262.00
162.83,-296.00
165.13,-477.00
167.44,381.00
169.74,-377.00
172.04,86.00
174.34,-290.00
176.63,230.00
178.93,960.00
181.22,1096.00
183.52,-47.00
185.81,185.00
188.10,33.00
190.38,-279.00
192.67,129.00
194.96,-13.00
197.24,-350.00
199.52,12.00
201.80,-427.00
204.08,17.00
206.36,327.00
208.63,23.00
210.91,-120.00
213.18,-81.00
215.45,77.00
217.72,-160.00
219.99,-98.00
222.26,-733.00
224.53,91.00
226.79,-341.00
229.05,-316.00
231.31,504.00
233.57,702.00
235.83,796.00
238.09,-809.00
240.35,189.00
242.60,175.00
244.85,494.00
247.10,-82.00
249.35,683.00
251.60,-153.00
253.85,-498.00
256.09,-323.00
258.34,99.00
260.58,647.00
262.82,195.00
265.06,-285.00
267.30,-883.00
269.54,-290.00
271.77,701.00
274.01,89.00
276.24,237.00
278.47,-526.00
280.70,-41.00
282.93,-82.00
285.15,-122.00
287.38,31.00
289.60,-180.00
291.83,307.00
294.05,46.00
296.27,363.00
298.48,262.00
300.70,131.00
302.92,-356.00
305.13,-13.00
307.34,-502.00
309.56,-462.00
311.77,469.00
313.97,-149.00
316.18,347.00
318.39,-438.00
320.59,189.00
322.79,-110.00
324.99,437.00
327.19,-296.00
329.39,1118.00
331.59,622.00
333.79,143.00
335.98,500.00
338.17,910.00
340.37,682.00
342.56,592.00
344.74,1518.00
346.93,982.00
349.12,932.00
351.30,1856.00
353.49,1829.00
355.67,2013.00
357.85,1485.00
360.03,1952.00
362.21,2108.00
364.38,2786.00
366.56,1600.00
368.73,2489.00
370.90,3059.00
373.08,2314.00
375.24,2344.00
377.41,3506.00
379.58,2430.00
381.75,2118.00
383.91,2710.00
386.07,1254.00
388.23,1739.00
390.39,1876.00
392.55,1576.00
394.71,2987.00
396.87,2717.00
399.02,3340.00
401.17,3826.00
403.33,2979.00
405.48,2530.00
407.63,3094.00
409.77,2426.00
411.92,4197.00
414.07,3283.00
416.21,3198.00
418.35,4421.00
420.49,4640.00
422.63,3337.00
424.77,2834.00
426.91,3323.00
429.05,4075.00
431.18,3662.00
433.31,4045.00
435.45,2801.00
437.58,2800.00
439.71,2942.00
441.83,3920.00
443.96,2351.00
446.09,2285.00
448.21,2100.00
450.33,3566.00
452.45,3181.00
454.57,3176.00
456.69,3333.00
458.81,3615.00
460.93,2369.00
463.04,3290.00
465.16,1804.00
467.27,3377.00
469.38,3349.00
471.49,3516.00
473.60,3304.00
475.70,3203.00
477.81,3621.00
479.91,4281.00
482.02,3781.00
484.12,5008.00
486.22,3912.00
488.32,5201.00
490.42,2891.00
492.51,3759.00
494.61,2556.00
496.70,2002.00
498.80,1099.00
500.89,2242.00
502.98,1787.00
505.07,1998.00
507.15,2577.00
509.24,986.00
511.33,1176.00
513.41,1580.00
515.49,1458.00
517.57,1939.00
519.65,1228.00
521.73,1335.00
523.81,1578.00
525.89,1487.00
527.96,1098.00
530.03,816.00
532.11,2366.00
534.18,1247.00
536.25,869.00
538.32,1183.00
540.38,1186.00
542.45,465.00
544.51,100.00
546.58,1465.00
548.64,971.00
550.70,1250.00
552.76,300.00
554.82,827.00
556.88,1134.00
558.93,1261.00
560.99,1415.00
563.04,1835.00
565.09,1364.00
567.14,1270.00
569.19,-14.00
571.24,188.00
573.29,1095.00
575.34,1359.00
577.38,1702.00
579.42,-236.00
581.47,1029.00
583.51,1184.00
585.55,1892.00
587.59,1272.00
589.62,1414.00
591.66,482.00
593.70,837.00
595.73,725.00
597.76,411.00
599.79,1396.00
601.82,1097.00
603.85,1188.00
605.88,1148.00
607.91,1304.00
609.93,453.00
611.96,1720.00
613.98,698.00
616.00,1001.00
618.02,1162.00
620.04,1465.00
622.06,1088.00
624.08,2268.00
626.09,1452.00
628.11,1884.00
630.12,1418.00
632.13,1413.00
634.14,1038.00
636.15,947.00
638.16,1170.00
640.17,1600.00
642.17,864.00
644.18,1663.00
646.18,700.00
648.18,1397.00
650.18,1366.00
652.18,1024.00
654.18,856.00
656.18,1243.00
658.18,733.00
660.17,1730.00
662.17,2025.00
664.16,2614.00
666.15,1273.00
668.14,962.00
670.13,1342.00
672.12,862.00
674.11,640.00
676.09,2686.00
678.08,612.00
680.06,2306.00
682.04,1598.00
684.02,851.00
686.00,1034.00
687.98,2147.00
689.96,1006.00
691.94,2253.00
693.91,1862.00
695.89,623.00
697.86,2550.00
699.83,1051.00
701.80,665.00
703.77,1323.00
705.74,1274.00
707.71,1263.00
709.67,1296.00
711.64,1179.00
713.60,1208.00
715.56,1280.00
717.52,1705.00
719.48,1144.00
721.44,1705.00
723.40,2297.00
725.36,1644.00
727.31,1981.00
729.27,1883.00
731.22,757.00
733.17,1992.00
735.13,1036.00
737.08,2086.00
739.02,487.00
740.97,246.00
742.92,1831.00
744.86,1872.00
746.81,755.00
748.75,1078.00
750.69,2343.00
752.63,1025.00
754.57,1274.00
756.51,2016.00
758.45,1557.00
760.39,1436.00
762.32,1770.00
764.26,1304.00
766.19,2116.00
768.12,1706.00
770.05,1969.00
771.98,1060.00
773.91,2017.00
775.84,1951.00
777.76,2136.00
779.69,1547.00
781.61,2628.00
783.54,1575.00
785.46,2607.00
787.38,2214.00
789.30,3374.00
791.22,2588.00
793.13,3504.00
795.05,3882.00
796.97,3307.00
798.88,4943.00
800.79,7755.00
802.70,10368.00
804.62,12594.00
806.52,18105.00
808.43,24402.00
810.34,34208.00
812.25,39239.00
814.15,44649.00
816.06,45896.00
817.96,43654.00
819.86,41250.00
821.76,35817.00
823.66,31812.00
825.56,25181.00
827.46,19294.00
829.36,15703.00
831.25,12973.00
833.15,9213.00
835.04,8792.00
836.93,6622.00
838.82,5329.00
840.71,5148.00
842.60,3913.00
844.49,3553.00
846.38,3892.00
848.26,3414.00
850.15,2886.00
852.03,3064.00
853.91,1757.00
855.80,1216.00
857.68,2126.00
859.56,1894.00
861.43,1639.00
863.31,1097.00
865.19,2108.00
867.06,2568.00
868.94,2659.00
870.81,1258.00
872.68,1443.00
874.55,2851.00
876.42,2148.00
878.29,2108.00
880.16,2674.00
882.03,2792.00
883.89,1148.00
885.76,1895.00
887.62,2053.00
889.48,2581.00
891.35,2032.00
893.21,1679.00
895.07,2766.00
896.92,1807.00
898.78,1944.00
900.64,1636.00
902.49,2688.00
904.35,1501.00
906.20,2305.00
908.05,2739.00
909.90,3001.00
911.75,3275.00
913.60,3288.00
915.45,3605.00
917.30,2724.00
919.14,3942.00
920.99,5139.00
922.83,4872.00
924.68,4396.00
926.52,4597.00
928.36,5083.00
930.20,5973.00
932.04,6121.00
933.87,6024.00
935.71,7214.00
937.55,6638.00
939.38,7594.00
941.21,8230.00
943.05,7620.00
944.88,8804.00
946.71,10235.00
948.54,9846.00
950.37,9770.00
952.20,10859.00
954.02,10681.00
955.85,8838.00
957.67,8405.00
959.50,8353.00
961.32,6816.00
963.14,5638.00
964.96,6899.00
966.78,3942.00
968.60,4388.00
970.42,3797.00
972.23,2922.00
974.05,4973.00
975.86,2648.00
977.68,2924.00
979.49,3906.00
981.30,2771.00
983.11,2247.00
984.92,2564.00
986.73,2375.00
988.54,2699.00
990.34,2512.00
992.15,2350.00
993.95,1894.00
995.76,2773.00
997.56,2022.00
999.36,2094.00
1001.16,1824.00
1002.96,1688.00
1004.76,2028.00
1006.56,1444.00
1008.35,2516.00
1010.15,992.00
1011.94,1355.00
1013.74,2114.00
1015.53,1536.00
1017.32,2309.00
1019.11,1736.00
1020.90,1690.00
1022.69,2655.00
1024.48,2190.00
1026.27,810.00
1028.05,1544.00
1029.84,2020.00
1031.62,1413.00
1033.41,1078.00
1035.19,1155.00
1036.97,2221.00
1038.75,3112.00
1040.53,2569.00
1042.31,1882.00
1044.08,1041.00
1045.86,1495.00
1047.64,1584.00
1049.41,1104.00
1051.18,1849.00
1052.96,1654.00
1054.73,920.00
1056.50,1334.00
1058.27,1481.00
1060.04,1480.00
1061.81,2779.00
1063.57,1326.00
1065.34,2633.00
1067.10,2754.00
1068.87,2001.00
1070.63,2049.00
1072.39,2348.00
1074.15,1990.00
1075.91,2104.00
1077.67,2781.00
1079.43,1840.00
1081.19,2183.00
1082.95,2512.00
1084.70,2662.00
1086.46,2657.00
1088.21,2372.00
1089.96,2128.00
1091.71,3625.00
1093.47,3880.00
1095.22,4271.00
1096.96,2853.00
1098.71,4797.00
1100.46,4103.00
1102.21,4145.00
1103.95,5260.00
1105.70,4271.00
1107.44,4825.00
1109.18,6329.00
1110.92,4993.00
1112.66,6073.00
1114.40,6909.00
1116.14,7062.00
1117.88,6872.00
1119.62,6897.00
1121.35,6607.00
1123.09,7687.00
1124.82,6545.00
1126.56,8098.00
1128.29,7945.00
1130.02,8250.00
1131.75,9265.00
1133.48,8017.00
1135.21,9035.00
1136.94,7409.00
1138.67,8108.00
1140.39,7665.00
1142.12,8020.00
1143.84,7564.00
1145.57,5356.00
1147.29,6283.00
1149.01,6733.00
1150.73,5208.00
1152.45,6615.00
1154.17,6177.00
1155.89,6155.00
1157.60,5119.00
1159.32,4976.00
1161.04,5254.00
1162.75,5945.00
1164.46,4555.00
1166.18,5272.00
1167.89,5190.00
1169.60,5481.00
1171.31,6209.00
1173.02,5218.00
1174.73,5851.00
1176.43,4305.00
1178.14,4151.00
1179.85,4219.00
1181.55,3791.00
1183.25,4291.00
1184.96,2837.00
1186.66,2040.00
1188.36,3073.00
1190.06,2473.00
1191.76,2957.00
1193.46,3476.00
1195.16,2719.00
1196.85,3172.00
1198.55,2474.00
1200.24,2696.00
1201.94,2859.00
1203.63,2349.00
1205.32,2607.00
1207.02,1585.00
1208.71,2728.00
1210.40,1745.00
1212.09,2233.00
1213.77,1722.00
1215.46,2319.00
1217.15,2591.00
1218.83,2141.00
1220.52,2332.00
1222.20,1592.00
1223.88,2001.00
1225.57,1770.00
1227.25,1813.00
1228.93,2704.00
1230.61,2115.00
1232.29,3025.00
1233.96,1164.00
1235.64,3435.00
1237.32,2104.00
1238.99,1801.00
1240.67,1483.00
1242.34,2819.00
1244.01,1832.00
1245.69,1788.00
1247.36,2305.00
1249.03,2374.00
1250.70,1587.00
1252.36,1978.00
1254.03,2144.00
1255.70,2075.00
1257.37,1737.00
1259.03,1416.00
1260.69,2465.00
1262.36,1814.00
1264.02,1532.00
1265.68,1878.00
1267.34,3133.00
1269.00,1619.00
1270.66,2229.00
1272.32,2135.00
1273.98,2794.00
1275.64,2588.00
1277.29,2321.00
1278.95,2183.00
1280.60,2295.00
1282.25,2024.00
1283.91,2563.00
1285.56,2018.00
1287.21,2444.00
1288.86,3495.00
1290.51,2834.00
1292.16,2791.00
1293.81,2622.00
1295.45,3603.00
1297.10,2959.00
1298.74,3288.00
1300.39,2301.00
1302.03,4226.00
1303.68,4029.00
1305.32,2471.00
1306.96,2619.00
1308.60,3384.00
1310.24,4017.00
1311.88,2849.00
1313.52,3511.00
1315.15,3667.00
1316.79,4297.00
1318.42,4209.00
1320.06,4770.00
1321.69,4367.00
1323.33,4369.00
1324.96,4449.00
1326.59,3886.00
1328.22,4014.00
1329.85,3655.00
1331.48,4399.00
1333.11,4115.00
1334.74,3858.00
1336.36,4113.00
1337.99,3812.00
1339.61,4588.00
1341.24,4987.00
1342.86,4558.00
1344.48,5381.00
1346.11,5472.00
1347.73,3966.00
1349.35,5015.00
1350.97,4540.00
1352.58,5185.00
1354.20,4503.00
1355.82,4310.00
1357.44,4657.00
1359.05,3667.00
1360.67,4664.00
1362.28,3966.00
1363.89,4724.00
1365.51,4357.00
1367.12,3718.00
1368.73,4243.00
1370.34,4089.00
1371.95,3728.00
1373.56,3839.00
1375.17,3710.00
1376.77,4367.00
1378.38,2886.00
1379.98,3954.00
1381.59,3070.00
1383.19,4823.00
1384.80,3168.00
1386.40,4868.00
1388.00,4799.00
1389.60,4029.00
1391.20,4822.00
1392.80,4698.00
1394.40,4618.00
1396.00,6137.00
1397.59,5294.00
1399.19,4143.00
1400.78,4909.00
1402.38,5466.00
1403.97,4670.00
1405.57,6049.00
1407.16,4500.00
1408.75,5412.00
1410.34,5878.00
1411.93,4496.00
1413.52,6015.00
1415.11,5798.00
1416.70,5834.00
1418.28,5972.00
1419.87,6640.00
1421.46,5938.00
1423.04,6584.00
1424.63,6051.00
1426.21,6492.00
1427.79,6370.00
1429.37,6340.00
1430.95,6767.00
1432.54,7466.00
1434.11,7428.00
1435.69,7006.00
1437.27,6513.00
1438.85,9073.00
1440.43,8340.00
1442.00,7357.00
1443.58,9298.00
1445.15,9906.00
1446.72,9179.00
1448.30,10167.00
1449.87,11641.00
1451.44,11726.00
1453.01,11662.00
1454.58,12859.00
1456.15,14701.00
1457.72,13364.00
1459.29,13553.00
1460.85,13107.00
1462.42,12781.00
1463.99,12682.00
1465.55,14623.00
1467.12,13175.00
1468.68,13678.00
1470.24,12283.00
1471.80,11740.00
1473.36,10829.00
1474.93,11229.00
1476.49,10924.00
1478.04,9624.00
1479.60,9054.00
1481.16,7940.00
1482.72,8311.00
1484.27,6836.00
1485.83,6138.00
1487.38,5479.00
1488.94,5997.00
1490.49,4883.00
1492.04,4237.00
1493.60,4549.00
1495.15,5149.00
1496.70,4598.00
1498.25,4933.00
1499.80,3683.00
1501.34,2778.00
1502.89,3071.00
1504.44,3838.00
1505.98,2946.00
1507.53,3390.00
1509.07,2928.00
1510.62,3789.00
1512.16,4149.00
1513.70,2567.00
1515.25,3029.00
1516.79,3272.00
1518.33,3073.00
1519.87,3547.00
1521.41,2595.00
1522.95,2502.00
1524.48,2970.00
1526.02,2125.00
1527.56,2179.00
1529.09,2142.00
1530.63,2530.00
1532.16,2348.00
1533.69,2931.00
1535.23,2481.00
1536.76,1704.00
1538.29,2750.00
1539.82,3577.00
1541.35,3401.00
1542.88,2519.00
1544.41,2793.00
1545.94,2090.00
1547.47,1637.00
1548.99,1954.00
1550.52,2748.00
1552.04,1527.00
1553.57,2459.00
1555.09,2519.00
1556.61,2549.00
1558.14,3221.00
1559.66,1284.00
1561.18,2336.00
1562.70,2527.00
1564.22,1708.00
1565.74,1577.00
1567.26,2753.00
1568.78,2381.00
1570.29,1680.00
1571.81,2569.00
1573.32,1466.00
1574.84,1937.00
1576.35,1245.00
1577.87,2606.00
1579.38,1208.00
1580.89,2259.00
1582.41,2432.00
1583.92,2707.00
1585.43,2356.00
1586.94,2259.00
1588.45,1997.00
1589.95,3202.00
1591.46,2384.00
1592.97,2394.00
1594.47,2021.00
1595.98,2105.00
1597.49,2375.00
1598.99,2102.00
1600.49,2417.00
1602.00,1805.00
1603.50,2041.00
1605.00,1914.00
1606.50,431.00
1608.00,1367.00
1609.50,1913.00
1611.00,1249.00
1612.50,1846.00
1614.00,2544.00
1615.49,1888.00
1616.99,2449.00
1618.49,938.00
1619.98,645.00
1621.48,1201.00
1622.97,1715.00
1624.46,1486.00
1625.96,2262.00
1627.45,2495.00
1628.94,2111.00
1630.43,2047.00
1631.92,1571.00
1633.41,1145.00
1634.90,2547.00
1636.39,2707.00
1637.87,2452.00
1639.36,1432.00
1640.85,2206.00
1642.33,1717.00
1643.82,2557.00
1645.30,2735.00
1646.78,1910.00
1648.27,1825.00
1649.75,2628.00
1651.23,1672.00
1652.71,2734.00
1654.19,2208.00
1655.67,1701.00
1657.15,2164.00
1658.63,2210.00
1660.11,1529.00
1661.58,2496.00
1663.06,1004.00
1664.54,2074.00
1666.01,1462.00
1667.49,2912.00
1668.96,2301.00
1670.43,2107.00
1671.91,1836.00
1673.38,2754.00
1674.85,2519.00
1676.32,2129.00
1677.79,2215.00
1679.26,1533.00
1680.73,2926.00
1682.20,2727.00
1683.67,1903.00
1685.14,2176.00
1686.60,2112.00
1688.07,1873.00
1689.53,1808.00
1691.00,2793.00
1692.46,2600.00
1693.93,2237.00
1695.39,2068.00
1696.85,2413.00
1698.31,2706.00
1699.77,686.00
1701.23,1593.00
1702.69,2574.00
1704.15,2164.00
1705.61,2691.00
1707.07,2626.00
1708.53,2769.00
1709.98,2814.00
1711.44,2461.00
1712.90,2203.00
1714.35,2451.00
1715.81,1991.00
1717.26,1845.00
1718.71,2156.00
1720.16,2066.00
1721.62,1658.00
1723.07,2677.00
1724.52,2907.00
1725.97,2686.00
1727.42,2799.00
1728.87,802.00
1730.32,2579.00
1731.76,2421.00
1733.21,2197.00
1734.66,1810.00
1736.10,2135.00
1737.55,2566.00
1738.99,2364.00
1740.44,2034.00
1741.88,2985.00
1743.32,2398.00
1744.77,2093.00
1746.21,2131.00
1747.65,2125.00
1749.09,1690.00
1750.53,2223.00
1751.97,3073.00
1753.41,1436.00
1754.85,1505.00
1756.29,2580.00
1757.72,2498.00
1759.16,1563.00
1760.60,2813.00
1762.03,1139.00
1763.47,2039.00
1764.90,1640.00
1766.33,2215.00
1767.77,1795.00
1769.20,2320.00
1770.63,2665.00
1772.06,2479.00
1773.49,1665.00
1774.92,1786.00
1776.35,3252.00
1777.78,2009.00
1779.21,1385.00
1780.64,2176.00
1782.07,2006.00
1783.49,2514.00
1784.92,2130.00
1786.34,2224.00
1787.77,2705.00
1789.19,1115.00
1790.62,2462.00
1792.04,2121.00
1793.46,2015.00
1794.89,1608.00
1796.31,2140.00
1797.73,951.00
1799.15,2485.00
1800.57,2648.00
1801.99,1797.00
1803.41,1216.00
1804.83,1828.00
1806.24,2324.00
1807.66,1922.00
1809.08,1625.00
1810.49,2108.00
1811.91,1944.00
1813.32,2423.00
1814.74,2298.00
1816.15,2427.00
1817.57,2003.00
1818.98,2755.00
1820.39,1425.00
1821.80,1498.00
1823.21,2044.00
1824.62,2356.00
1826.03,1119.00
1827.44,1540.00
1828.85,2497.00
1830.26,1491.00
1831.67,1897.00
1833.08,2291.00
