ENLIGHTEN Version,1.6.8
Measurement ID,20190304-083733-457000-unknown
Serial Number,unknown
Label,2019-03-04 08:40:25 Isopropanol 10x50ms Spectrum
Integration Time,25
Timestamp,2019-03-04 08:37:33.457000
Note,
Temperature,-99
CCD C0,801.7174072265625
CCD C1,0.14122000336647034
CCD C2,-5.609700110653648e-06
CCD C3,-8.541699791919655e-09
CCD Offset,0
CCD Gain,1.9
Laser Wavelength,785.0
Laser Enable,True
Laser Power,100.0
Laser Temperature,-99
Pixel Count,1024

Wavenumber,Processed
265.63,8.80
267.83,14.50
270.02,18.10
272.22,17.80
274.41,23.50
276.60,27.90
278.80,43.20
280.99,44.80
283.18,54.90
285.37,71.60
287.55,78.10
289.74,95.20
291.93,108.10
294.11,119.60
296.30,138.30
298.48,144.10
300.66,154.60
302.84,155.20
305.02,158.70
307.20,163.20
309.38,159.90
311.56,159.70
313.74,162.50
315.91,154.50
318.09,151.40
320.26,151.00
322.43,154.30
324.61,159.00
326.78,160.00
328.95,160.90
331.12,161.60
333.28,166.80
335.45,165.40
337.62,173.70
339.78,175.30
341.95,189.80
344.11,200.20
346.27,206.10
348.43,215.90
350.59,221.80
352.75,243.40
354.91,263.10
357.07,305.60
359.23,348.80
361.38,404.50
363.54,498.70
365.69,605.80
367.84,701.60
370.00,777.40
372.15,809.70
374.30,777.40
376.45,700.00
378.59,623.10
380.74,539.30
382.89,463.60
385.03,421.50
387.18,396.20
389.32,362.70
391.46,365.20
393.60,347.10
395.74,354.70
397.88,367.20
400.02,367.70
402.16,390.90
404.29,407.00
406.43,446.80
408.57,481.50
410.70,519.40
412.83,571.50
414.96,638.40
417.09,718.40
419.22,810.20
421.35,888.20
423.48,966.10
425.61,1021.60
427.73,1046.00
429.86,1066.30
431.98,1057.90
434.11,1041.70
436.23,1008.40
438.35,962.10
440.47,923.40
442.59,853.30
444.71,812.80
446.82,751.90
448.94,707.20
451.05,655.80
453.17,600.00
455.28,563.30
457.39,530.30
459.51,496.30
461.62,475.90
463.73,469.20
465.83,457.40
467.94,455.50
470.05,469.90
472.15,511.40
474.26,556.20
476.36,649.50
478.47,754.90
480.57,898.40
482.67,1048.10
484.77,1173.80
486.87,1257.80
488.97,1284.30
491.06,1225.00
493.16,1136.40
495.25,1010.80
497.35,884.60
499.44,743.80
501.53,638.10
503.62,546.50
505.71,453.40
507.80,403.50
509.89,351.10
511.98,318.50
514.07,286.20
516.15,262.50
518.24,245.50
520.32,229.30
522.40,220.50
524.48,207.80
526.56,196.60
528.64,184.50
530.72,178.40
532.80,176.40
534.88,176.00
536.95,171.00
539.03,157.10
541.10,155.30
543.17,155.10
545.24,145.30
547.32,153.00
549.39,140.20
551.45,140.60
553.52,135.10
555.59,131.20
557.66,131.30
559.72,129.30
561.78,139.20
563.85,131.20
565.91,129.10
567.97,135.00
570.03,126.40
572.09,122.90
574.15,128.20
576.21,124.20
578.26,128.20
580.32,127.50
582.37,135.50
584.42,126.80
586.48,127.40
588.53,120.80
590.58,124.40
592.63,123.90
594.68,120.90
596.72,122.40
598.77,118.20
600.82,129.00
602.86,126.10
604.90,115.80
606.95,119.60
608.99,122.30
611.03,121.30
613.07,127.60
615.11,122.30
617.15,119.10
619.18,130.30
621.22,127.30
623.25,128.00
625.29,122.70
627.32,133.70
629.35,127.10
631.38,135.60
633.41,120.50
635.44,124.00
637.47,127.70
639.50,125.20
641.52,121.20
643.55,130.40
645.57,128.30
647.60,126.00
649.62,128.00
651.64,128.20
653.66,129.90
655.68,130.70
657.70,120.80
659.71,121.20
661.73,117.10
663.75,129.60
665.76,128.80
667.77,118.90
669.79,126.20
671.80,134.70
673.81,126.70
675.82,135.30
677.83,130.90
679.83,131.20
681.84,135.90
683.84,135.50
685.85,132.00
687.85,138.40
689.86,134.00
691.86,139.30
693.86,132.30
695.86,140.80
697.86,143.70
699.85,140.30
701.85,131.40
703.85,148.60
705.84,150.10
707.84,148.00
709.83,153.20
711.82,144.10
713.81,147.80
715.80,157.10
717.79,147.60
719.78,159.70
721.76,154.90
723.75,158.20
725.74,157.00
727.72,159.50
729.70,159.60
731.68,164.00
733.67,164.30
735.65,171.60
737.62,172.80
739.60,173.90
741.58,182.60
743.56,196.70
745.53,194.40
747.51,196.00
749.48,206.90
751.45,202.50
753.42,214.80
755.39,211.60
757.36,223.00
759.33,227.20
761.30,237.50
763.26,242.30
765.23,247.60
767.19,257.80
769.16,266.70
771.12,277.40
773.08,300.30
775.04,307.60
777.00,320.90
778.96,354.00
780.92,374.30
782.87,407.00
784.83,418.90
786.78,468.70
788.74,512.70
790.69,576.50
792.64,646.30
794.59,732.10
796.54,851.20
798.49,1018.20
800.44,1267.60
802.38,1757.10
804.33,2246.70
806.27,3236.80
808.22,4843.90
810.16,7271.40
812.10,10608.80
814.04,14345.50
815.98,17640.50
817.92,19227.60
819.86,18708.00
821.80,16158.30
823.73,12376.40
825.67,8418.60
827.60,5284.40
829.53,3308.30
831.47,2187.50
833.40,1712.10
835.33,1236.10
837.26,1007.00
839.18,850.00
841.11,742.20
843.04,658.60
844.96,605.40
846.89,538.00
848.81,512.90
850.73,476.50
852.65,454.90
854.57,436.00
856.49,425.50
858.41,382.60
860.33,375.60
862.24,354.60
864.16,347.60
866.07,328.70
867.99,311.20
869.90,291.10
871.81,289.60
873.72,290.30
875.63,280.90
877.54,285.30
879.44,279.30
881.35,288.20
883.26,285.60
885.16,287.70
887.06,301.20
888.97,304.80
890.87,306.10
892.77,309.40
894.67,323.80
896.57,333.40
898.46,350.40
900.36,376.50
902.26,397.40
904.15,432.70
906.04,461.40
907.94,502.70
909.83,565.00
911.72,636.30
913.61,704.60
915.50,797.60
917.38,883.50
919.27,971.50
921.16,1052.70
923.04,1151.30
924.92,1275.90
926.81,1429.40
928.69,1623.10
930.57,1852.00
932.45,2062.00
934.33,2227.00
936.20,2357.80
938.08,2467.90
939.96,2543.60
941.83,2689.90
943.71,2880.80
945.58,3142.90
947.45,3443.60
949.32,3674.80
951.19,3815.70
953.06,3737.20
954.93,3489.60
956.79,3065.30
958.66,2570.20
960.52,2073.20
962.39,1641.50
964.25,1303.20
966.11,1047.20
967.97,884.40
969.83,748.00
971.69,675.80
973.55,596.90
975.41,543.70
977.26,511.00
979.12,468.20
980.97,430.50
982.82,408.60
984.68,386.70
986.53,356.30
988.38,349.40
990.23,324.20
992.07,302.40
993.92,282.00
995.77,270.30
997.61,263.40
999.46,253.50
1001.30,252.40
1003.14,228.60
1004.98,224.90
1006.82,221.50
1008.66,218.90
1010.50,213.60
1012.34,206.00
1014.17,196.00
1016.01,192.60
1017.84,195.20
1019.68,194.70
1021.51,186.60
1023.34,181.60
1025.17,184.30
1027.00,188.10
1028.83,184.10
1030.65,191.30
1032.48,174.80
1034.31,187.50
1036.13,187.50
1037.95,190.60
1039.77,194.40
1041.60,198.00
1043.42,191.50
1045.24,192.30
1047.05,206.00
1048.87,201.60
1050.69,209.10
1052.50,212.50
1054.32,214.30
1056.13,223.00
1057.94,238.30
1059.75,248.60
1061.56,255.70
1063.37,264.30
1065.18,283.10
1066.99,294.60
1068.80,317.50
1070.60,321.40
1072.41,341.80
1074.21,372.70
1076.01,386.60
1077.81,411.10
1079.61,455.70
1081.41,494.10
1083.21,523.60
1085.01,574.10
1086.81,636.30
1088.60,701.20
1090.40,774.10
1092.19,848.80
1093.98,944.00
1095.77,1077.40
1097.56,1204.30
1099.35,1348.00
1101.14,1501.30
1102.93,1665.30
1104.72,1812.10
1106.50,1965.40
1108.29,2082.10
1110.07,2179.70
1111.85,2223.80
1113.63,2228.80
1115.41,2248.30
1117.19,2257.00
1118.97,2277.60
1120.75,2342.70
1122.53,2452.10
1124.30,2615.10
1126.08,2771.00
1127.85,2932.90
1129.62,3038.00
1131.39,3044.20
1133.17,2966.20
1134.93,2805.60
1136.70,2549.60
1138.47,2295.80
1140.24,2047.80
1142.00,1813.30
1143.77,1615.30
1145.53,1489.00
1147.29,1418.60
1149.06,1350.00
1150.82,1340.50
1152.58,1352.00
1154.34,1397.30
1156.09,1459.60
1157.85,1534.80
1159.61,1608.70
1161.36,1690.80
1163.11,1730.40
1164.87,1706.80
1166.62,1651.70
1168.37,1525.60
1170.12,1381.10
1171.87,1211.40
1173.62,1056.30
1175.36,909.90
1177.11,788.40
1178.85,687.90
1180.60,617.00
1182.34,567.70
1184.08,509.80
1185.82,467.20
1187.56,437.90
1189.30,413.40
1191.04,392.60
1192.78,378.50
1194.51,362.00
1196.25,347.90
1197.98,334.80
1199.71,314.10
1201.45,319.00
1203.18,294.20
1204.91,292.80
1206.64,280.40
1208.36,264.50
1210.09,268.60
1211.82,258.90
1213.54,258.60
1215.27,243.70
1216.99,241.60
1218.71,240.00
1220.43,244.50
1222.15,226.10
1223.87,228.00
1225.59,223.30
1227.31,226.20
1229.02,226.80
1230.74,213.10
1232.45,222.70
1234.16,219.20
1235.88,215.10
1237.59,210.80
1239.30,215.50
1241.01,215.10
1242.71,226.00
1244.42,218.00
1246.13,210.70
1247.83,231.30
1249.54,217.90
1251.24,229.00
1252.94,239.00
1254.64,233.90
1256.34,253.60
1258.04,246.00
1259.74,255.60
1261.44,256.70
1263.13,267.60
1264.83,268.60
1266.52,286.10
1268.22,290.00
1269.91,317.20
1271.60,325.10
1273.29,340.00
1274.98,357.30
1276.67,382.40
1278.35,399.60
1280.04,417.10
1281.73,442.10
1283.41,474.70
1285.09,494.60
1286.78,533.60
1288.46,553.40
1290.14,597.90
1291.82,628.60
1293.49,666.60
1295.17,704.60
1296.85,731.50
1298.52,775.50
1300.20,804.20
1301.87,830.60
1303.54,862.90
1305.21,902.80
1306.88,922.70
1308.55,929.90
1310.22,933.00
1311.89,942.50
1313.56,959.30
1315.22,975.40
1316.89,972.00
1318.55,957.80
1320.21,965.80
1321.87,977.90
1323.53,989.40
1325.19,1013.90
1326.85,1045.00
1328.51,1078.20
1330.16,1167.10
1331.82,1213.20
1333.47,1310.40
1335.13,1412.70
1336.78,1529.10
1338.43,1649.90
1340.08,1689.30
1341.73,1743.90
1343.38,1711.30
1345.03,1641.40
1346.67,1534.30
1348.32,1420.60
1349.96,1318.20
1351.61,1202.30
1353.25,1125.90
1354.89,1051.80
1356.53,1013.30
1358.17,972.60
1359.81,961.80
1361.45,949.30
1363.08,947.90
1364.72,948.60
1366.35,919.80
1367.99,913.30
1369.62,904.70
1371.25,900.70
1372.88,912.20
1374.51,915.30
1376.14,918.20
1377.77,947.40
1379.39,997.70
1381.02,1022.70
1382.64,1039.80
1384.27,1075.60
1385.89,1076.50
1387.51,1104.10
1389.13,1111.20
1390.75,1127.50
1392.37,1161.70
1393.99,1205.90
1395.60,1234.60
1397.22,1300.80
1398.83,1341.40
1400.45,1412.40
1402.06,1467.30
1403.67,1513.30
1405.28,1579.10
1406.89,1642.30
1408.50,1654.20
1410.11,1709.50
1411.71,1713.50
1413.32,1739.70
1414.92,1760.80
1416.53,1736.90
1418.13,1747.90
1419.73,1738.30
1421.33,1764.50
1422.93,1770.60
1424.53,1773.10
1426.13,1813.90
1427.72,1845.20
1429.32,1883.90
1430.91,1918.80
1432.51,2005.00
1434.10,2095.10
1435.69,2212.70
1437.28,2349.00
1438.87,2544.30
1440.46,2787.60
1442.05,3140.80
1443.64,3561.80
1445.22,4062.30
1446.81,4554.10
1448.39,5052.20
1449.97,5437.20
1451.55,5613.30
1453.14,5670.20
1454.72,5505.00
1456.29,5237.40
1457.87,4906.30
1459.45,4529.50
1461.02,4207.90
1462.60,3888.10
1464.17,3578.60
1465.75,3330.20
1467.32,3059.40
1468.89,2808.50
1470.46,2544.20
1472.03,2294.50
1473.59,2064.00
1475.16,1842.10
1476.73,1618.90
1478.29,1449.50
1479.86,1283.70
1481.42,1160.30
1482.98,1075.90
1484.54,983.30
1486.10,895.10
1487.66,834.90
1489.22,774.30
1490.77,714.80
1492.33,690.70
1493.88,643.00
1495.44,602.70
1496.99,574.30
1498.54,537.20
1500.09,510.70
1501.64,490.60
1503.19,474.00
1504.74,438.60
1506.29,428.20
1507.83,423.40
1509.38,396.10
1510.92,380.40
1512.47,361.30
1514.01,365.70
1515.55,343.70
1517.09,327.50
1518.63,320.80
1520.16,309.20
1521.70,290.60
1523.24,309.90
1524.77,285.40
1526.31,289.90
1527.84,276.60
1529.37,278.30
1530.90,264.40
1532.43,255.10
1533.96,254.30
1535.49,239.50
1537.02,221.50
1538.54,228.80
1540.07,221.30
1541.59,222.80
1543.11,208.00
1544.64,205.70
1546.16,181.00
1547.68,182.10
1549.20,178.00
1550.71,168.30
1552.23,159.00
1553.75,151.70
1555.26,151.50
1556.78,143.20
1558.29,163.50
1559.80,155.00
1561.31,143.40
1562.82,147.90
1564.33,138.50
1565.84,141.40
1567.35,133.90
1568.85,129.50
1570.36,120.50
1571.86,122.80
1573.36,137.30
1574.87,140.80
1576.37,132.50
1577.87,134.70
1579.37,124.20
1580.87,122.40
1582.36,111.60
1583.86,122.60
1585.35,114.20
1586.85,110.70
1588.34,108.10
1589.83,120.60
1591.32,110.90
1592.81,104.60
1594.30,100.50
1595.79,128.70
1597.28,114.60
1598.76,107.30
1600.25,107.20
1601.73,116.40
1603.22,109.40
1604.70,105.40
1606.18,118.50
1607.66,114.10
1609.14,127.40
1610.62,127.30
1612.10,110.40
1613.57,107.70
1615.05,127.00
1616.52,109.00
1617.99,115.50
1619.47,141.40
1620.94,105.30
1622.41,116.70
1623.88,110.90
1625.35,128.90
1626.81,121.30
1628.28,124.80
1629.74,120.20
1631.21,119.90
1632.67,121.80
1634.13,123.10
1635.60,114.90
1637.06,115.50
1638.51,131.40
1639.97,128.00
1641.43,130.10
1642.89,116.50
1644.34,139.70
1645.80,135.00
1647.25,127.30
1648.70,134.90
1650.15,133.40
1651.60,149.30
1653.05,127.80
1654.50,148.00
1655.95,158.70
1657.40,138.30
1658.84,140.40
1660.28,142.60
1661.73,145.80
1663.17,148.40
1664.61,138.30
1666.05,139.70
1667.49,157.60
1668.93,143.40
1670.37,154.40
1671.80,150.60
1673.24,138.20
1674.67,153.80
1676.11,146.90
1677.54,147.20
1678.97,138.30
1680.40,145.60
1681.83,162.70
1683.26,140.90
1684.69,138.60
1686.11,148.80
1687.54,151.50
1688.96,134.00
1690.39,139.50
1691.81,144.50
1693.23,132.90
1694.65,129.60
1696.07,121.70
1697.49,129.50
1698.91,122.00
1700.32,121.80
1701.74,123.30
1703.15,113.00
1704.57,111.40
1705.98,126.80
1707.39,116.70
1708.80,117.40
1710.21,116.10
1711.62,120.20
1713.03,108.50
1714.43,116.90
1715.84,124.30
1717.24,97.50
1718.65,119.60
1720.05,105.60
1721.45,109.20
1722.85,106.00
1724.25,109.80
1725.65,104.40
1727.05,107.80
1728.44,108.40
1729.84,96.50
1731.23,92.70
1732.63,84.50
1734.02,107.10
1735.41,80.20
1736.80,81.70
1738.19,94.20
1739.58,89.40
1740.97,92.80
1742.35,77.30
1743.74,70.10
1745.12,75.70
1746.51,81.00
1747.89,57.50
1749.27,73.70
1750.65,78.30
1752.03,73.90
1753.41,64.20
1754.79,71.40
1756.17,61.40
1757.54,63.90
1758.92,53.50
1760.29,44.40
1761.66,62.40
1763.03,45.40
1764.41,49.10
1765.78,49.00
1767.14,39.90
1768.51,47.10
1769.88,60.50
1771.24,63.60
1772.61,39.20
1773.97,42.20
1775.34,39.40
1776.70,44.50
1778.06,46.70
1779.42,38.20
1780.78,40.40
1782.13,29.30
1783.49,35.70
1784.85,46.10
1786.20,47.50
1787.56,33.20
1788.91,41.00
1790.26,43.40
1791.61,40.60
1792.96,41.20
1794.31,45.00
1795.66,33.10
1797.00,38.90
1798.35,36.40
1799.69,36.70
1801.04,28.30
1802.38,43.00
1803.72,29.40
1805.06,31.20
1806.40,24.70
1807.74,46.70
1809.08,42.70
1810.42,29.70
1811.75,40.10
1813.09,40.20
1814.42,49.60
1815.76,37.90
1817.09,42.70
1818.42,48.40
1819.75,41.30
1821.08,41.90
1822.40,47.30
1823.73,40.50
1825.06,35.60
1826.38,39.40
1827.71,50.40
1829.03,48.80
1830.35,41.00
1831.67,52.60
1832.99,38.30
1834.31,44.90
1835.63,37.70
1836.95,48.50
1838.26,43.80
1839.58,52.90
1840.89,56.20
1842.20,36.40
1843.52,62.70
1844.83,44.80
1846.14,46.30
1847.45,49.90
1848.75,41.40
1850.06,43.40
1851.37,60.70
1852.67,46.00
1853.98,49.20
1855.28,43.80
1856.58,43.30
1857.88,49.10
1859.18,47.10
1860.48,39.70
1861.78,44.10
1863.08,54.10
1864.37,36.00
1865.67,51.00
1866.96,52.30
1868.26,42.40
1869.55,45.20
1870.84,51.30
1872.13,47.60
1873.42,52.60
1874.71,47.20
1875.99,46.70
1877.28,42.80
1878.56,42.00
1879.85,50.10
1881.13,52.50
1882.41,37.30
1883.69,45.40
1884.97,43.80
1886.25,42.00
1887.53,48.70
1888.81,41.70
1890.09,45.50
1891.36,37.70
1892.63,39.80
1893.91,43.80
1895.18,51.20
1896.45,44.90
1897.72,45.40
1898.99,40.70
1900.26,43.90
1901.53,41.70
1902.79,44.40
1904.06,42.10
1905.32,35.30
1906.58,40.60
1907.85,36.60
1909.11,45.90
1910.37,36.20
1911.63,50.40
1912.89,39.10
1914.14,39.70
1915.40,35.10
1916.65,40.80
1917.91,42.10
1919.16,37.90
1920.41,33.40
1921.67,38.30
1922.92,42.50
1924.17,34.60
1925.41,31.80
1926.66,29.60
1927.91,43.20
1929.15,40.40
1930.40,41.30
1931.64,38.10
1932.88,48.20
1934.12,36.60
1935.36,23.10
1936.60,48.70
1937.84,34.60
1939.08,39.70
1940.32,51.30
1941.55,40.70
1942.79,31.40
1944.02,39.20
1945.25,30.40
1946.48,41.60
1947.71,33.90
1948.94,37.60
1950.17,34.80
1951.40,36.10
1952.62,33.80
1953.85,34.00
1955.07,40.20
1956.30,33.80
1957.52,44.80
1958.74,37.30
1959.96,33.40
1961.18,38.30
1962.40,29.70
1963.62,35.50
1964.83,35.80
1966.05,36.80
1967.26,29.90
1968.48,35.90
1969.69,17.70
1970.90,32.50
1972.11,27.40
1973.32,30.50
1974.53,25.90
1975.74,28.50
1976.94,25.00
1978.15,23.30
1979.35,18.10
1980.56,33.50
1981.76,22.80
1982.96,34.50
1984.16,28.00
1985.36,20.70
1986.56,32.30
1987.76,32.30
1988.95,19.60
1990.15,22.80
1991.34,27.80
1992.54,23.40
1993.73,15.80
1994.92,17.10
1996.11,14.40
1997.30,28.10
1998.49,23.30
1999.68,21.40
