ENLIGHTEN Version,1.6.8
Measurement ID,20190528-091617-777242-WP-00382
Serial Number,WP-00382
Label,Isopropanol
Integration Time,500
Timestamp,2019-05-28 09:16:17.777242
Note,
Temperature,-99
CCD C0,798.9494018554688
CCD C1,0.3235599994659424
CCD C2,-4.676200114772655e-05
CCD C3,-1.6238999478446203e-08
CCD Offset,0
CCD Gain,1.9
Laser Wavelength,830.0
Laser Enable,False
Laser Power,100.0
Laser Temperature,-99
Pixel Count,1024

Wavenumber,Processed
-468.24,-4.00
-463.18,-9.00
-458.12,6.00
-453.06,0.00
-448.01,7.00
-442.97,-6.00
-437.93,-6.00
-432.90,-4.00
-427.87,-5.00
-422.85,8.00
-417.83,15.00
-412.82,2.00
-407.82,-8.00
-402.82,-6.00
-397.82,-6.00
-392.83,-12.00
-387.85,8.00
-382.87,6.00
-377.90,6.00
-372.93,-15.00
-367.97,0.00
-363.01,15.00
-358.06,6.00
-353.12,4.00
-348.18,0.00
-343.24,-4.00
-338.31,-8.00
-333.39,5.00
-328.47,2.00
-323.56,2.00
-318.65,6.00
-313.75,-4.00
-308.85,8.00
-303.96,5.00
-299.08,-1.00
-294.19,-6.00
-289.32,4.00
-284.45,-13.00
-279.58,4.00
-274.72,11.00
-269.87,12.00
-265.02,7.00
-260.18,-6.00
-255.34,-17.00
-250.51,-4.00
-245.68,11.00
-240.86,-8.00
-236.04,0.00
-231.23,-9.00
-226.42,-9.00
-221.62,6.00
-216.82,14.00
-212.03,-8.00
-207.25,2.00
-202.46,-5.00
-197.69,-14.00
-192.92,6.00
-188.15,11.00
-183.39,1.00
-178.64,11.00
-173.89,-5.00
-169.15,4.00
-164.41,4.00
-159.67,-3.00
-154.94,-4.00
-150.22,9.00
-145.50,6.00
-140.79,-11.00
-136.08,9.00
-131.38,-2.00
-126.68,2.00
-121.99,-9.00
-117.30,-5.00
-112.62,2.00
-107.94,2.00
-103.27,3.00
-98.60,10.00
-93.94,-2.00
-89.28,-2.00
-84.63,4.00
-79.98,5.00
-75.34,0.00
-70.70,-4.00
-66.07,4.00
-61.44,-14.00
-56.82,5.00
-52.20,-2.00
-47.59,2.00
-42.98,4.00
-38.38,-10.00
-33.78,3.00
-29.19,-9.00
-24.60,10.00
-20.02,8.00
-15.44,4.00
-10.87,0.00
-6.31,10.00
-1.74,15.00
2.81,0.00
7.37,6.00
11.91,0.00
16.46,4.00
20.99,-2.00
25.53,-4.00
30.05,7.00
34.58,5.00
39.09,12.00
43.61,-8.00
48.12,-2.00
52.62,0.00
57.12,10.00
61.61,0.00
66.10,6.00
70.58,8.00
75.06,0.00
79.54,2.00
84.01,13.00
88.47,2.00
92.93,0.00
97.38,9.00
101.83,-2.00
106.28,7.00
110.72,13.00
115.16,14.00
119.59,2.00
124.01,12.00
128.43,-8.00
132.85,7.00
137.26,14.00
141.67,0.00
146.07,-2.00
150.47,10.00
154.86,1.00
159.25,-8.00
163.63,4.00
168.01,15.00
172.38,-2.00
176.75,8.00
181.12,10.00
185.47,21.00
189.83,13.00
194.18,9.00
198.52,30.00
202.87,17.00
207.20,30.00
211.53,46.00
215.86,71.00
220.18,103.00
224.50,159.00
228.81,218.00
233.12,329.00
237.42,441.00
241.72,525.00
246.02,565.00
250.30,616.00
254.59,621.00
258.87,615.00
263.15,626.00
267.42,617.00
271.68,601.00
275.94,588.00
280.20,531.00
284.45,523.00
288.70,502.00
292.95,460.00
297.18,445.00
301.42,422.00
305.65,400.00
309.87,401.00
314.09,395.00
318.31,409.00
322.52,369.00
326.73,357.00
330.93,362.00
335.13,395.00
339.32,424.00
343.51,404.00
347.69,436.00
351.87,468.00
356.05,541.00
360.22,639.00
364.39,799.00
368.55,1068.00
372.71,1511.00
376.86,1925.00
381.01,1806.00
385.15,1377.00
389.29,1070.00
393.43,900.00
397.56,857.00
401.68,831.00
405.80,860.00
409.92,973.00
414.03,1071.00
418.14,1252.00
422.25,1513.00
426.35,1862.00
430.44,2194.00
434.53,2366.00
438.62,2338.00
442.70,2245.00
446.78,2036.00
450.85,1813.00
454.92,1560.00
458.98,1356.00
463.04,1215.00
467.10,1107.00
471.15,1016.00
475.20,1039.00
479.24,1141.00
483.28,1510.00
487.31,1988.00
491.34,2520.00
495.37,2616.00
499.39,2347.00
503.41,1839.00
507.42,1350.00
511.43,1056.00
515.43,814.00
519.43,662.00
523.42,567.00
527.42,468.00
531.40,445.00
535.38,358.00
539.36,398.00
543.34,360.00
547.31,303.00
551.27,310.00
555.23,293.00
559.19,299.00
563.14,298.00
567.09,308.00
571.03,278.00
574.97,240.00
578.91,238.00
582.84,281.00
586.77,287.00
590.69,283.00
594.61,224.00
598.52,225.00
602.43,226.00
606.34,258.00
610.24,240.00
614.14,219.00
618.03,230.00
621.92,248.00
625.80,229.00
629.68,242.00
633.56,229.00
637.43,236.00
641.30,221.00
645.17,215.00
649.03,199.00
652.88,227.00
656.73,205.00
660.58,215.00
664.42,183.00
668.26,223.00
672.10,200.00
675.93,201.00
679.76,217.00
683.58,167.00
687.40,223.00
691.21,204.00
695.02,203.00
698.83,228.00
702.63,215.00
706.43,205.00
710.22,227.00
714.02,245.00
717.80,199.00
721.58,257.00
725.36,269.00
729.13,247.00
732.90,283.00
736.67,269.00
740.43,251.00
744.19,291.00
747.94,342.00
751.69,341.00
755.44,346.00
759.18,375.00
762.92,392.00
766.65,430.00
770.38,457.00
774.11,474.00
777.83,520.00
781.55,575.00
785.26,655.00
788.97,782.00
792.67,880.00
796.38,1116.00
800.07,1471.00
803.77,1988.00
807.46,3053.00
811.14,5233.00
814.82,9810.00
818.50,18616.00
822.18,30382.00
825.85,33780.00
829.51,23615.00
833.17,11967.00
836.83,5973.00
840.49,3360.00
844.14,2286.00
847.78,1577.00
851.42,1220.00
855.06,1023.00
858.70,866.00
862.33,796.00
865.96,686.00
869.58,647.00
873.20,605.00
876.81,571.00
880.42,514.00
884.03,470.00
887.63,503.00
891.23,483.00
894.83,504.00
898.42,555.00
902.01,575.00
905.59,651.00
909.17,742.00
912.75,842.00
916.32,1031.00
919.89,1269.00
923.46,1510.00
927.02,1843.00
930.57,2208.00
934.13,2726.00
937.68,3428.00
941.22,4070.00
944.76,4391.00
948.30,4726.00
951.84,5416.00
955.37,6295.00
958.89,6502.00
962.42,5528.00
965.94,3961.00
969.45,2667.00
972.96,1784.00
976.47,1368.00
979.98,1054.00
983.48,889.00
986.97,713.00
990.46,665.00
993.95,550.00
997.44,504.00
1000.92,421.00
1004.40,434.00
1007.87,364.00
1011.34,312.00
1014.81,310.00
1018.27,341.00
1021.73,287.00
1025.19,244.00
1028.64,253.00
1032.09,241.00
1035.53,222.00
1038.97,272.00
1042.41,253.00
1045.84,270.00
1049.27,278.00
1052.70,285.00
1056.12,290.00
1059.54,291.00
1062.95,371.00
1066.36,373.00
1069.77,444.00
1073.17,442.00
1076.57,537.00
1079.97,608.00
1083.36,697.00
1086.75,829.00
1090.13,930.00
1093.52,1103.00
1096.89,1404.00
1100.27,1699.00
1103.64,2125.00
1107.01,2557.00
1110.37,3104.00
1113.73,3476.00
1117.09,3803.00
1120.44,3870.00
1123.79,3925.00
1127.13,4107.00
1130.47,4495.00
1133.81,4975.00
1137.15,5224.00
1140.48,4854.00
1143.80,4133.00
1147.13,3370.00
1150.45,2790.00
1153.77,2556.00
1157.08,2458.00
1160.39,2458.00
1163.69,2615.00
1167.00,2831.00
1170.29,2926.00
1173.59,2751.00
1176.88,2199.00
1180.17,1670.00
1183.45,1379.00
1186.73,1048.00
1190.01,894.00
1193.29,800.00
1196.56,693.00
1199.82,647.00
1203.09,561.00
1206.35,533.00
1209.60,493.00
1212.85,468.00
1216.10,430.00
1219.35,424.00
1222.59,405.00
1225.83,356.00
1229.06,371.00
1232.30,346.00
1235.52,352.00
1238.75,341.00
1241.97,339.00
1245.19,341.00
1248.40,360.00
1251.61,343.00
1254.82,341.00
1258.02,363.00
1261.22,407.00
1264.42,383.00
1267.61,443.00
1270.80,447.00
1273.99,475.00
1277.17,519.00
1280.35,566.00
1283.53,628.00
1286.70,707.00
1289.87,809.00
1293.03,892.00
1296.20,982.00
1299.36,1103.00
1302.51,1213.00
1305.66,1324.00
1308.81,1431.00
1311.96,1522.00
1315.10,1558.00
1318.24,1576.00
1321.37,1617.00
1324.50,1642.00
1327.63,1724.00
1330.75,1731.00
1333.88,1872.00
1336.99,2064.00
1340.11,2272.00
1343.22,2623.00
1346.33,2806.00
1349.43,2778.00
1352.53,2484.00
1355.63,2140.00
1358.72,1900.00
1361.82,1712.00
1364.90,1611.00
1367.99,1571.00
1371.07,1543.00
1374.14,1513.00
1377.22,1496.00
1380.29,1534.00
1383.36,1593.00
1386.42,1632.00
1389.48,1758.00
1392.54,1808.00
1395.59,1809.00
1398.64,1925.00
1401.69,2087.00
1404.74,2228.00
1407.78,2388.00
1410.81,2594.00
1413.85,2705.00
1416.88,2769.00
1419.91,2891.00
1422.93,2886.00
1425.95,2964.00
1428.97,3010.00
1431.98,3126.00
1434.99,3295.00
1438.00,3516.00
1441.01,3845.00
1444.01,4468.00
1447.00,5269.00
1450.00,6434.00
1452.99,7745.00
1455.98,8684.00
1458.96,8677.00
1461.94,8034.00
1464.92,7134.00
1467.90,6304.00
1470.87,5460.00
1473.84,4734.00
1476.80,3932.00
1479.76,3280.00
1482.72,2649.00
1485.68,2156.00
1488.63,1805.00
1491.58,1556.00
1494.53,1356.00
1497.47,1141.00
1500.41,1016.00
1503.34,900.00
1506.28,804.00
1509.21,759.00
1512.13,673.00
1515.06,637.00
1517.98,542.00
1520.89,519.00
1523.81,485.00
1526.72,468.00
1529.62,447.00
1532.53,434.00
1535.43,392.00
1538.33,365.00
1541.22,352.00
1544.11,308.00
1547.00,309.00
1549.89,270.00
1552.77,267.00
1555.65,249.00
1558.52,235.00
1561.39,236.00
1564.26,225.00
1567.13,197.00
1569.99,188.00
1572.85,207.00
1575.71,175.00
1578.56,142.00
1581.41,162.00
1584.26,147.00
1587.10,178.00
1589.94,154.00
1592.78,143.00
1595.61,133.00
1598.45,154.00
1601.27,148.00
1604.10,156.00
1606.92,158.00
1609.74,143.00
1612.56,162.00
1615.37,149.00
1618.18,166.00
1620.98,170.00
1623.79,171.00
1626.59,169.00
1629.38,184.00
1632.18,175.00
1634.97,189.00
1637.76,192.00
1640.54,169.00
1643.32,186.00
1646.10,200.00
1648.88,194.00
1651.65,175.00
1654.42,177.00
1657.19,200.00
1659.95,221.00
1662.71,215.00
1665.47,215.00
1668.22,217.00
1670.97,216.00
1673.72,232.00
1676.46,234.00
1679.21,220.00
1681.94,238.00
1684.68,237.00
1687.41,219.00
1690.14,208.00
1692.87,213.00
1695.59,215.00
1698.31,192.00
1701.03,188.00
1703.74,179.00
1706.46,200.00
1709.16,168.00
1711.87,163.00
1714.57,171.00
1717.27,167.00
1719.97,165.00
1722.66,160.00
1725.35,156.00
1728.04,156.00
1730.72,158.00
1733.40,152.00
1736.08,122.00
1738.76,141.00
1741.43,133.00
1744.10,123.00
1746.77,110.00
1749.43,122.00
1752.09,106.00
1754.75,97.00
1757.40,101.00
1760.05,85.00
1762.70,82.00
1765.35,89.00
1767.99,61.00
1770.63,73.00
1773.27,59.00
1775.90,69.00
1778.53,48.00
1781.16,52.00
1783.78,53.00
1786.41,51.00
1789.02,40.00
1791.64,53.00
1794.25,46.00
1796.86,52.00
1799.47,10.00
1802.07,51.00
1804.68,29.00
1807.27,42.00
1809.87,47.00
1812.46,48.00
1815.05,46.00
1817.64,47.00
1820.22,25.00
1822.80,40.00
1825.38,59.00
1827.96,48.00
1830.53,46.00
1833.10,51.00
1835.66,61.00
1838.23,57.00
1840.79,53.00
1843.35,47.00
1845.90,61.00
1848.45,22.00
1851.00,31.00
1853.55,30.00
1856.09,38.00
1858.63,38.00
1861.17,36.00
1863.70,46.00
1866.23,43.00
1868.76,42.00
1871.29,40.00
1873.81,42.00
1876.33,65.00
1878.85,40.00
1881.36,36.00
1883.88,45.00
1886.38,44.00
1888.89,48.00
1891.39,49.00
1893.89,53.00
1896.39,34.00
1898.89,38.00
1901.38,38.00
1903.87,31.00
1906.35,52.00
1908.84,46.00
1911.32,34.00
1913.79,40.00
1916.27,27.00
1918.74,33.00
1921.21,38.00
1923.67,23.00
1926.14,27.00
1928.60,40.00
1931.06,27.00
1933.51,32.00
1935.96,27.00
1938.41,35.00
1940.86,40.00
1943.30,17.00
1945.74,25.00
1948.18,34.00
1950.62,40.00
1953.05,42.00
1955.48,40.00
1957.91,46.00
1960.33,32.00
1962.75,31.00
1965.17,32.00
1967.59,29.00
1970.00,28.00
1972.41,27.00
1974.82,32.00
1977.22,28.00
1979.62,33.00
1982.02,14.00
1984.42,32.00
1986.81,12.00
1989.20,13.00
1991.59,21.00
1993.98,21.00
1996.36,21.00
1998.74,9.00
2001.12,36.00
2003.49,36.00
2005.86,23.00
2008.23,20.00
2010.60,17.00
2012.96,27.00
2015.32,21.00
2017.68,29.00
2020.04,19.00
2022.39,12.00
2024.74,27.00
2027.08,36.00
2029.43,17.00
2031.77,21.00
2034.11,38.00
2036.45,43.00
2038.78,21.00
2041.11,23.00
2043.44,34.00
2045.76,34.00
2048.09,29.00
2050.40,25.00
2052.72,38.00
2055.04,30.00
2057.35,25.00
2059.66,40.00
2061.96,40.00
2064.27,25.00
2066.57,36.00
2068.87,40.00
2071.16,27.00
2073.45,29.00
2075.74,49.00
2078.03,44.00
2080.32,43.00
2082.60,29.00
2084.88,36.00
2087.16,51.00
2089.43,38.00
2091.70,36.00
2093.97,33.00
2096.24,27.00
2098.50,36.00
2100.76,23.00
2103.02,21.00
2105.27,29.00
2107.53,45.00
2109.78,19.00
2112.02,28.00
2114.27,38.00
2116.51,19.00
2118.75,21.00
2120.99,40.00
2123.22,7.00
2125.45,13.00
2127.68,25.00
2129.91,7.00
2132.13,17.00
2134.35,8.00
2136.57,13.00
2138.79,25.00
2141.00,28.00
2143.21,6.00
2145.42,13.00
2147.62,19.00
2149.83,-2.00
2152.03,10.00
2154.22,19.00
2156.42,-4.00
2158.61,19.00
2160.80,8.00
2162.99,-4.00
2165.17,-11.00
2167.35,3.00
2169.53,13.00
2171.71,5.00
2173.88,9.00
2176.05,13.00
2178.22,5.00
2180.39,13.00
2182.55,10.00
2184.71,9.00
2186.87,2.00
2189.03,6.00
2191.18,1.00
2193.33,10.00
2195.48,28.00
2197.63,9.00
2199.77,8.00
2201.91,9.00
2204.05,12.00
2206.18,8.00
2208.31,19.00
2210.44,23.00
2212.57,5.00
2214.70,19.00
2216.82,15.00
2218.94,13.00
2221.06,13.00
2223.17,15.00
2225.28,11.00
2227.39,28.00
2229.50,23.00
2231.60,7.00
2233.71,32.00
2235.80,19.00
2237.90,11.00
2240.00,28.00
2242.09,19.00
2244.18,29.00
2246.26,21.00
2248.35,22.00
2250.43,23.00
2252.51,40.00
2254.58,26.00
2256.66,32.00
2258.73,19.00
2260.80,45.00
2262.86,32.00
2264.93,40.00
2266.99,44.00
2269.05,49.00
2271.10,56.00
2273.16,31.00
2275.21,44.00
2277.26,47.00
2279.30,48.00
2281.35,47.00
2283.39,30.00
2285.43,28.00
2287.46,32.00
2289.50,27.00
2291.53,38.00
2293.56,40.00
2295.58,42.00
2297.61,40.00
2299.63,45.00
2301.65,40.00
2303.66,47.00
2305.68,34.00
2307.69,38.00
2309.70,49.00
2311.70,30.00
2313.71,26.00
2315.71,24.00
2317.71,30.00
2319.70,36.00
2321.70,23.00
2323.69,8.00
2325.68,19.00
2327.66,20.00
2329.65,28.00
2331.63,27.00
2333.61,19.00
2335.59,14.00
2337.56,41.00
2339.53,13.00
2341.50,21.00
2343.47,19.00
2345.43,31.00
2347.39,8.00
2349.35,25.00
2351.31,27.00
2353.26,2.00
2355.22,27.00
2357.17,36.00
2359.11,27.00
2361.06,20.00
2363.00,30.00
2364.94,9.00
2366.88,31.00
2368.81,31.00
2370.74,33.00
2372.67,21.00
2374.60,28.00
2376.53,34.00
2378.45,35.00
2380.37,36.00
2382.29,21.00
2384.20,32.00
2386.12,26.00
2388.03,27.00
2389.93,35.00
2391.84,27.00
2393.74,26.00
2395.64,30.00
2397.54,31.00
2399.44,10.00
2401.33,28.00
2403.22,23.00
2405.11,13.00
2407.00,38.00
2408.88,28.00
2410.76,34.00
2412.64,14.00
2414.52,13.00
2416.40,17.00
2418.27,25.00
2420.14,27.00
2422.00,19.00
2423.87,19.00
2425.73,23.00
2427.59,25.00
2429.45,23.00
2431.30,0.00
2433.16,19.00
2435.01,11.00
2436.86,9.00
2438.70,16.00
2440.54,25.00
2442.39,9.00
2444.22,17.00
2446.06,8.00
2447.89,11.00
2449.73,13.00
2451.55,21.00
2453.38,13.00
2455.21,17.00
2457.03,13.00
2458.85,21.00
2460.66,5.00
2462.48,11.00
2464.29,28.00
2466.10,3.00
2467.91,18.00
2469.71,11.00
2471.52,27.00
2473.32,17.00
2475.12,10.00
2476.91,19.00
2478.71,11.00
2480.50,27.00
2482.29,21.00
2484.07,19.00
2485.86,19.00
2487.64,21.00
2489.42,12.00
2491.20,21.00
2492.97,26.00
2494.74,25.00
2496.51,15.00
2498.28,5.00
2500.05,24.00
2501.81,28.00
2503.57,5.00
2505.33,18.00
2507.09,19.00
2508.84,32.00
2510.59,30.00
2512.34,18.00
2514.09,17.00
2515.83,24.00
2517.57,19.00
2519.31,26.00
2521.05,23.00
2522.79,25.00
2524.52,24.00
2526.25,9.00
2527.98,21.00
2529.70,6.00
2531.43,25.00
2533.15,28.00
2534.87,20.00
2536.58,21.00
2538.30,21.00
2540.01,2.00
2541.72,16.00
2543.43,15.00
2545.13,26.00
2546.84,12.00
2548.54,28.00
2550.24,17.00
2551.93,-4.00
2553.62,17.00
2555.32,12.00
2557.01,6.00
2558.69,-9.00
2560.38,11.00
2562.06,12.00
2563.74,2.00
2565.42,22.00
2567.09,14.00
2568.77,4.00
2570.44,23.00
2572.10,7.00
2573.77,21.00
2575.43,15.00
2577.10,21.00
2578.76,18.00
2580.41,7.00
2582.07,15.00
2583.72,17.00
2585.37,34.00
2587.02,11.00
2588.66,24.00
2590.31,17.00
2591.95,19.00
2593.59,21.00
2595.22,27.00
2596.86,11.00
2598.49,22.00
2600.12,20.00
2601.75,11.00
2603.37,7.00
2605.00,12.00
2606.62,29.00
2608.24,23.00
2609.85,4.00
2611.47,14.00
2613.08,17.00
2614.69,-2.00
2616.30,13.00
2617.90,25.00
2619.50,15.00
2621.10,17.00
2622.70,13.00
2624.30,25.00
2625.89,10.00
2627.48,13.00
2629.07,13.00
2630.66,9.00
2632.25,19.00
2633.83,15.00
2635.41,13.00
2636.99,13.00
2638.56,23.00
2640.14,19.00
2641.71,8.00
2643.28,10.00
2644.84,13.00
2646.41,4.00
