ENLIGHTEN Version,1.6.8
Measurement ID,20190528-103411-780146-SIGD-0003
Serial Number,SIGD-0003
Label,Linseed Oil
Integration Time,1
Timestamp,2019-05-28 10:34:11.780146
Note,
Temperature,-99
CCD C0,613.8702392578125
CCD C1,0.10380711406469345
CCD C2,-1.9689399778144434e-05
CCD C3,3.600099995892947e-09
CCD Offset,0
CCD Gain,1.9
Laser Wavelength,633.0
Laser Enable,True
Laser Power,100.0
Laser Temperature,-99
Pixel Count,1952

Wavenumber,Processed
-492.30,0.00
-489.55,0.00
-486.79,0.00
-484.04,-328.00
-481.30,-617.00
-478.55,371.00
-475.81,149.00
-473.06,-325.00
-470.32,151.00
-467.59,-391.00
-464.85,-405.00
-462.12,349.00
-459.38,-588.00
-456.65,159.00
-453.93,-228.00
-451.20,404.00
-448.48,617.00
-445.75,-279.00
-443.03,619.00
-440.31,304.00
-437.60,-545.00
-434.88,243.00
-432.17,-133.00
-429.46,34.00
-426.75,82.00
-424.04,119.00
-421.34,421.00
-418.64,-120.00
-415.93,292.00
-413.24,-447.00
-410.54,-466.00
-407.84,-83.00
-405.15,121.00
-402.46,-564.00
-399.77,-89.00
-397.08,-407.00
-394.39,254.00
-391.71,-80.00
-389.03,-145.00
-386.35,-129.00
-383.67,-331.00
-380.99,-586.00
-378.32,473.00
-375.65,346.00
-372.98,306.00
-370.31,-95.00
-367.64,-220.00
-364.98,-221.00
-362.31,506.00
-359.65,184.00
-356.99,-790.00
-354.33,533.00
-351.68,80.00
-349.03,-284.00
-346.37,-299.00
-343.72,797.00
-341.08,-466.00
-338.43,-408.00
-335.78,502.00
-333.14,273.00
-330.50,-515.00
-327.86,-455.00
-325.23,-319.00
-322.59,-684.00
-319.96,350.00
-317.33,-126.00
-314.70,-242.00
-312.07,-260.00
-309.44,336.00
-306.82,93.00
-304.20,127.00
-301.57,-633.00
-298.96,428.00
-296.34,539.00
-293.72,263.00
-291.11,581.00
-288.50,120.00
-285.89,-579.00
-283.28,13.00
-280.68,-713.00
-278.07,-402.00
-275.47,347.00
-272.87,-57.00
-270.27,99.00
-267.68,-243.00
-265.08,343.00
-262.49,-113.00
-259.90,-300.00
-257.31,407.00
-254.72,22.00
-252.13,43.00
-249.55,-326.00
-246.97,227.00
-244.39,718.00
-241.81,-17.00
-239.23,-367.00
-236.65,-129.00
-234.08,368.00
-231.51,-292.00
-228.94,71.00
-226.37,-1114.00
-223.81,114.00
-221.24,-217.00
-218.68,-598.00
-216.12,630.00
-213.56,-130.00
-211.00,-54.00
-208.45,-365.00
-205.89,-10.00
-203.34,130.00
-200.79,-514.00
-198.24,175.00
-195.69,-726.00
-193.15,-6.00
-190.61,117.00
-188.06,638.00
-185.52,-854.00
-182.99,130.00
-180.45,-54.00
-177.92,201.00
-175.38,-314.00
-172.85,-689.00
-170.32,139.00
-167.79,-300.00
-165.27,161.00
-162.74,195.00
-160.22,244.00
-157.70,341.00
-155.18,-80.00
-152.66,-40.00
-150.15,-149.00
-147.64,-129.00
-145.12,-86.00
-142.61,501.00
-140.10,-33.00
-137.60,-330.00
-135.09,21.00
-132.59,93.00
-130.09,404.00
-127.59,526.00
-125.09,-487.00
-122.59,20.00
-120.10,-20.00
-117.60,-156.00
-115.11,-648.00
-112.62,222.00
-110.13,-308.00
-107.65,878.00
-105.16,-44.00
-102.68,-255.00
-100.20,541.00
-97.72,182.00
-95.24,-100.00
-92.76,450.00
-90.29,-193.00
-87.82,459.00
-85.35,-178.00
-82.88,55.00
-80.41,219.00
-77.94,152.00
-75.48,404.00
-73.01,360.00
-70.55,-399.00
-68.09,-215.00
-65.64,-409.00
-63.18,-431.00
-60.73,332.00
-58.27,132.00
-55.82,41.00
-53.37,103.00
-50.92,-186.00
-48.48,-282.00
-46.03,148.00
-43.59,-82.00
-41.15,400.00
-38.71,345.00
-36.27,-20.00
-33.83,615.00
-31.40,-203.00
-28.97,179.00
-26.53,179.00
-24.10,134.00
-21.68,-148.00
-19.25,90.00
-16.82,428.00
-14.40,-98.00
-11.98,-204.00
-9.56,294.00
-7.14,-146.00
-4.72,-220.00
-2.31,228.00
0.10,-81.00
2.52,-493.00
4.93,-387.00
7.34,101.00
9.74,444.00
12.15,258.00
14.55,739.00
16.95,1.00
19.36,-127.00
21.75,143.00
24.15,-301.00
26.55,372.00
28.94,169.00
31.34,-563.00
33.73,363.00
36.12,-279.00
38.50,860.00
40.89,-90.00
43.27,107.00
45.66,259.00
48.04,353.00
50.42,138.00
52.80,228.00
55.17,276.00
57.55,-504.00
59.92,311.00
62.30,312.00
64.67,-69.00
67.04,-359.00
69.40,-77.00
71.77,272.00
74.13,-188.00
76.50,21.00
78.86,94.00
81.22,381.00
83.57,-101.00
85.93,-289.00
88.29,221.00
90.64,40.00
92.99,-48.00
95.34,-63.00
97.69,107.00
100.04,-111.00
102.38,342.00
104.73,240.00
107.07,190.00
109.41,758.00
111.75,290.00
114.09,-167.00
116.42,-116.00
118.76,-186.00
121.09,-236.00
123.42,287.00
125.75,145.00
128.08,-29.00
130.41,98.00
132.74,-277.00
135.06,465.00
137.38,-8.00
139.70,-129.00
142.02,402.00
144.34,285.00
146.66,-23.00
148.97,378.00
151.29,32.00
153.60,427.00
155.91,259.00
158.22,-80.00
160.52,-300.00
162.83,-318.00
165.13,195.00
167.44,301.00
169.74,1131.00
172.04,309.00
174.34,-348.00
176.63,-358.00
178.93,286.00
181.22,-225.00
183.52,261.00
185.81,-313.00
188.10,370.00
190.38,-180.00
192.67,320.00
194.96,375.00
197.24,315.00
199.52,-43.00
201.80,505.00
204.08,-161.00
206.36,601.00
208.63,808.00
210.91,649.00
213.18,320.00
215.45,-25.00
217.72,146.00
219.99,183.00
222.26,690.00
224.53,307.00
226.79,877.00
229.05,502.00
231.31,-69.00
233.57,387.00
235.83,-373.00
238.09,111.00
240.35,527.00
242.60,-162.00
244.85,-110.00
247.10,549.00
249.35,10.00
251.60,-81.00
253.85,-185.00
256.09,225.00
258.34,243.00
260.58,395.00
262.82,-132.00
265.06,221.00
267.30,-523.00
269.54,926.00
271.77,190.00
274.01,55.00
276.24,305.00
278.47,143.00
280.70,126.00
282.93,397.00
285.15,339.00
287.38,491.00
289.60,517.00
291.83,389.00
294.05,451.00
296.27,604.00
298.48,728.00
300.70,818.00
302.92,664.00
305.13,763.00
307.34,1491.00
309.56,705.00
311.77,1927.00
313.97,1905.00
316.18,2683.00
318.39,2783.00
320.59,4365.00
322.79,4470.00
324.99,5443.00
327.19,6887.00
329.39,7976.00
331.59,9637.00
333.79,11092.00
335.98,12357.00
338.17,15683.00
340.37,17717.00
342.56,19529.00
344.74,22216.00
346.93,24596.00
349.12,25570.00
351.30,27703.00
353.49,29646.00
355.67,30506.00
357.85,31548.00
360.03,31901.00
362.21,32460.00
364.38,34509.00
366.56,33955.00
368.73,33940.00
370.90,33554.00
373.08,36363.00
375.24,34958.00
377.41,36115.00
379.58,36735.00
381.75,36550.00
383.91,37472.00
386.07,38718.00
388.23,35979.00
390.39,38447.00
392.55,39987.00
394.71,38512.00
396.87,39395.00
399.02,42437.00
401.17,38887.00
403.33,40384.00
405.48,42033.00
407.63,41156.00
409.77,41401.00
411.92,42646.00
414.07,39906.00
416.21,42859.00
418.35,43892.00
420.49,41504.00
422.63,43358.00
424.77,43102.00
426.91,43629.00
429.05,43272.00
431.18,43159.00
433.31,45360.00
435.45,45147.00
437.58,43535.00
439.71,45554.00
441.83,44431.00
443.96,43828.00
446.09,45478.00
448.21,45662.00
450.33,46706.00
452.45,44798.00
454.57,45675.00
456.69,46568.00
458.81,47271.00
460.93,48197.00
463.04,49020.00
465.16,49063.00
467.27,47970.00
469.38,49260.00
471.49,48504.00
473.60,48189.00
475.70,48514.00
477.81,50713.00
479.91,48472.00
482.02,52017.00
484.12,49900.00
486.22,52417.00
488.32,50170.00
490.42,51613.00
492.51,52080.00
494.61,52551.00
496.70,51163.00
498.80,52166.00
500.89,52360.00
502.98,54277.00
505.07,54216.00
507.15,52821.00
509.24,54231.00
511.33,53041.00
513.41,53776.00
515.49,53663.00
517.57,53197.00
519.65,56093.00
521.73,54605.00
523.81,55325.00
525.89,55376.00
527.96,51393.00
530.03,55809.00
532.11,54501.00
534.18,55794.00
536.25,56807.00
538.32,54935.00
540.38,55201.00
542.45,55270.00
544.51,57838.00
546.58,55414.00
548.64,55262.00
550.70,55699.00
552.76,58517.00
554.82,57772.00
556.88,59319.00
558.93,58776.00
560.99,59500.00
563.04,60971.00
565.09,61439.00
567.14,61046.00
569.19,59357.00
571.24,59740.00
573.29,60636.00
575.34,60815.00
577.38,60881.00
579.42,60618.00
581.47,60685.00
583.51,61113.00
585.55,60728.00
587.59,60581.00
589.62,60794.00
591.66,60994.00
593.70,60374.00
595.73,60813.00
597.76,60389.00
599.79,60885.00
601.82,61122.00
603.85,60953.00
605.88,60757.00
607.91,61216.00
609.93,60570.00
611.96,61018.00
613.98,60664.00
616.00,60797.00
618.02,61059.00
620.04,60548.00
622.06,60677.00
624.08,61283.00
626.09,60632.00
628.11,60947.00
630.12,60782.00
632.13,60738.00
634.14,60789.00
636.15,60485.00
638.16,60594.00
640.17,60669.00
642.17,60756.00
644.18,61030.00
646.18,60838.00
648.18,60555.00
650.18,61022.00
652.18,60843.00
654.18,60842.00
656.18,60962.00
658.18,60614.00
660.17,61076.00
662.17,61203.00
664.16,60756.00
666.15,60479.00
668.14,61062.00
670.13,61309.00
672.12,60047.00
674.11,60493.00
676.09,60777.00
678.08,61090.00
680.06,61117.00
682.04,61090.00
684.02,61131.00
686.00,61175.00
687.98,61140.00
689.96,60384.00
691.94,60422.00
693.91,61088.00
695.89,60991.00
697.86,60753.00
699.83,61186.00
701.80,60991.00
703.77,60937.00
705.74,60520.00
707.71,60916.00
709.67,60652.00
711.64,60434.00
713.60,60944.00
715.56,61052.00
717.52,60460.00
719.48,60836.00
721.44,60425.00
723.40,60598.00
725.36,60878.00
727.31,60720.00
729.27,61024.00
731.22,60924.00
733.17,60998.00
735.13,60975.00
737.08,60886.00
739.02,60787.00
740.97,60758.00
742.92,60654.00
744.86,60437.00
746.81,61389.00
748.75,60488.00
750.69,60882.00
752.63,59960.00
754.57,61127.00
756.51,60755.00
758.45,60210.00
760.39,61083.00
762.32,61053.00
764.26,61054.00
766.19,59967.00
768.12,60950.00
770.05,60629.00
771.98,60989.00
773.91,60840.00
775.84,60819.00
777.76,60850.00
779.69,61074.00
781.61,59555.00
783.54,61022.00
785.46,59943.00
787.38,60863.00
789.30,60233.00
791.22,60490.00
793.13,59168.00
795.05,59734.00
796.97,60825.00
798.88,59542.00
800.79,56317.00
802.70,58153.00
804.62,57574.00
806.52,58267.00
808.43,56294.00
810.34,55531.00
812.25,55931.00
814.15,56048.00
816.06,55614.00
817.96,53949.00
819.86,54530.00
821.76,53744.00
823.66,55020.00
825.56,53978.00
827.46,52189.00
829.36,54755.00
831.25,54731.00
833.15,52251.00
835.04,54077.00
836.93,54186.00
838.82,51126.00
840.71,50960.00
842.60,51725.00
844.49,52003.00
846.38,51161.00
848.26,51145.00
850.15,50181.00
852.03,47483.00
853.91,49770.00
855.80,50418.00
857.68,48944.00
859.56,49744.00
861.43,47363.00
863.31,48243.00
865.19,47250.00
867.06,47671.00
868.94,46319.00
870.81,46720.00
872.68,46773.00
874.55,48719.00
876.42,46618.00
878.29,47092.00
880.16,47034.00
882.03,46112.00
883.89,46844.00
885.76,46644.00
887.62,44779.00
889.48,44669.00
891.35,45569.00
893.21,45096.00
895.07,47605.00
896.92,43259.00
898.78,43469.00
900.64,42432.00
902.49,43814.00
904.35,44408.00
906.20,42692.00
908.05,43548.00
909.90,43607.00
911.75,45059.00
913.60,44103.00
915.45,44037.00
917.30,43096.00
919.14,42565.00
920.99,42197.00
922.83,42981.00
924.68,43497.00
926.52,40677.00
928.36,42336.00
930.20,43148.00
932.04,41266.00
933.87,42563.00
935.71,42024.00
937.55,42409.00
939.38,42346.00
941.21,40198.00
943.05,39951.00
944.88,41833.00
946.71,41911.00
948.54,40531.00
950.37,40085.00
952.20,44219.00
954.02,40604.00
955.85,39560.00
957.67,40421.00
959.50,39698.00
961.32,39668.00
963.14,39828.00
964.96,39192.00
966.78,41095.00
968.60,38371.00
970.42,39019.00
972.23,38075.00
974.05,39592.00
975.86,37596.00
977.68,38962.00
979.49,39695.00
981.30,40973.00
983.11,38435.00
984.92,38910.00
986.73,38487.00
988.54,37303.00
990.34,37515.00
992.15,39561.00
993.95,37559.00
995.76,36681.00
997.56,37145.00
999.36,36600.00
1001.16,37129.00
1002.96,39238.00
1004.76,37128.00
1006.56,37282.00
1008.35,34747.00
1010.15,36155.00
1011.94,34163.00
1013.74,36564.00
1015.53,36089.00
1017.32,33988.00
1019.11,35983.00
1020.90,34633.00
1022.69,35763.00
1024.48,35760.00
1026.27,35386.00
1028.05,33189.00
1029.84,34212.00
1031.62,33985.00
1033.41,33521.00
1035.19,33928.00
1036.97,32669.00
1038.75,32685.00
1040.53,31734.00
1042.31,31834.00
1044.08,33229.00
1045.86,34143.00
1047.64,33775.00
1049.41,31391.00
1051.18,33558.00
1052.96,33856.00
1054.73,31701.00
1056.50,32355.00
1058.27,32064.00
1060.04,31032.00
1061.81,33009.00
1063.57,32607.00
1065.34,32302.00
1067.10,31240.00
1068.87,31426.00
1070.63,31013.00
1072.39,30416.00
1074.15,31336.00
1075.91,29706.00
1077.67,30988.00
1079.43,27717.00
1081.19,30519.00
1082.95,30646.00
1084.70,29239.00
1086.46,29832.00
1088.21,28299.00
1089.96,29102.00
1091.71,30013.00
1093.47,29995.00
1095.22,28555.00
1096.96,28761.00
1098.71,30472.00
1100.46,29999.00
1102.21,27780.00
1103.95,29096.00
1105.70,28218.00
1107.44,29105.00
1109.18,28566.00
1110.92,28600.00
1112.66,27459.00
1114.40,27570.00
1116.14,27377.00
1117.88,28487.00
1119.62,26278.00
1121.35,27161.00
1123.09,28219.00
1124.82,27285.00
1126.56,27028.00
1128.29,27478.00
1130.02,26008.00
1131.75,27753.00
1133.48,26685.00
1135.21,26345.00
1136.94,26465.00
1138.67,27513.00
1140.39,28970.00
1142.12,26178.00
1143.84,26064.00
1145.57,25989.00
1147.29,27056.00
1149.01,25788.00
1150.73,26702.00
1152.45,25662.00
1154.17,26558.00
1155.89,25306.00
1157.60,25761.00
1159.32,26614.00
1161.04,26391.00
1162.75,26697.00
1164.46,23618.00
1166.18,26785.00
1167.89,26732.00
1169.60,24733.00
1171.31,26210.00
1173.02,26617.00
1174.73,25805.00
1176.43,26132.00
1178.14,26093.00
1179.85,26379.00
1181.55,26564.00
1183.25,25917.00
1184.96,24669.00
1186.66,24642.00
1188.36,26108.00
1190.06,26667.00
1191.76,25359.00
1193.46,24394.00
1195.16,25107.00
1196.85,23775.00
1198.55,24636.00
1200.24,24623.00
1201.94,25475.00
1203.63,25032.00
1205.32,23540.00
1207.02,23132.00
1208.71,25671.00
1210.40,24263.00
1212.09,24952.00
1213.77,23588.00
1215.46,23884.00
1217.15,24215.00
1218.83,23332.00
1220.52,23886.00
1222.20,22604.00
1223.88,23508.00
1225.57,23308.00
1227.25,24418.00
1228.93,22818.00
1230.61,24832.00
1232.29,23205.00
1233.96,23821.00
1235.64,23357.00
1237.32,23450.00
1238.99,23346.00
1240.67,22082.00
1242.34,22918.00
1244.01,24227.00
1245.69,24669.00
1247.36,22568.00
1249.03,23663.00
1250.70,23081.00
1252.36,22040.00
1254.03,22962.00
1255.70,23071.00
1257.37,21777.00
1259.03,23286.00
1260.69,22255.00
1262.36,24640.00
1264.02,24025.00
1265.68,22737.00
1267.34,22350.00
1269.00,22339.00
1270.66,22189.00
1272.32,23542.00
1273.98,22807.00
1275.64,21960.00
1277.29,21577.00
1278.95,21999.00
1280.60,21828.00
1282.25,23522.00
1283.91,22055.00
1285.56,21790.00
1287.21,21792.00
1288.86,21932.00
1290.51,22813.00
1292.16,21448.00
1293.81,21596.00
1295.45,23346.00
1297.10,21099.00
1298.74,21257.00
1300.39,20902.00
1302.03,20940.00
1303.68,20798.00
1305.32,22083.00
1306.96,21015.00
1308.60,22125.00
1310.24,22920.00
1311.88,19665.00
1313.52,20932.00
1315.15,20831.00
1316.79,20669.00
1318.42,21033.00
1320.06,20134.00
1321.69,20244.00
1323.33,20670.00
1324.96,20572.00
1326.59,20754.00
1328.22,21491.00
1329.85,20858.00
1331.48,18487.00
1333.11,21320.00
1334.74,19105.00
1336.36,19804.00
1337.99,19673.00
1339.61,21035.00
1341.24,19936.00
1342.86,19338.00
1344.48,20841.00
1346.11,20894.00
1347.73,20862.00
1349.35,19947.00
1350.97,19588.00
1352.58,20207.00
1354.20,19263.00
1355.82,19181.00
1357.44,19618.00
1359.05,20172.00
1360.67,20187.00
1362.28,18640.00
1363.89,19653.00
1365.51,20084.00
1367.12,20554.00
1368.73,20436.00
1370.34,19506.00
1371.95,19537.00
1373.56,20171.00
1375.17,18760.00
1376.77,19294.00
1378.38,20189.00
1379.98,18163.00
1381.59,18328.00
1383.19,19815.00
1384.80,17834.00
1386.40,19603.00
1388.00,19625.00
1389.60,20354.00
1391.20,20558.00
1392.80,19806.00
1394.40,20093.00
1396.00,18956.00
1397.59,20338.00
1399.19,20152.00
1400.78,18813.00
1402.38,19108.00
1403.97,19493.00
1405.57,19341.00
1407.16,19784.00
1408.75,18290.00
1410.34,18839.00
1411.93,19107.00
1413.52,20537.00
1415.11,19092.00
1416.70,19587.00
1418.28,20698.00
1419.87,18787.00
1421.46,19796.00
1423.04,19071.00
1424.63,19432.00
1426.21,20918.00
1427.79,20136.00
1429.37,20070.00
1430.95,19820.00
1432.54,18806.00
1434.11,21984.00
1435.69,19335.00
1437.27,20437.00
1438.85,20179.00
1440.43,21849.00
1442.00,20377.00
1443.58,19128.00
1445.15,21133.00
1446.72,18696.00
1448.30,20776.00
1449.87,20280.00
1451.44,18785.00
1453.01,19404.00
1454.58,19418.00
1456.15,20990.00
1457.72,19515.00
1459.29,21936.00
1460.85,19743.00
1462.42,20618.00
1463.99,19097.00
1465.55,22495.00
1467.12,19697.00
1468.68,20606.00
1470.24,21408.00
1471.80,20091.00
1473.36,19534.00
1474.93,20852.00
1476.49,20995.00
1478.04,19931.00
1479.60,19421.00
1481.16,19199.00
1482.72,20097.00
1484.27,20317.00
1485.83,20686.00
1487.38,19432.00
1488.94,19542.00
1490.49,18983.00
1492.04,20541.00
1493.60,21557.00
1495.15,20461.00
1496.70,20357.00
1498.25,21035.00
1499.80,19056.00
1501.34,19929.00
1502.89,21025.00
1504.44,21077.00
1505.98,19703.00
1507.53,20385.00
1509.07,20634.00
1510.62,20489.00
1512.16,19485.00
1513.70,20694.00
1515.25,20579.00
1516.79,19951.00
1518.33,19283.00
1519.87,20146.00
1521.41,19628.00
1522.95,18186.00
1524.48,19816.00
1526.02,19812.00
1527.56,19446.00
1529.09,20789.00
1530.63,19566.00
1532.16,19353.00
1533.69,20181.00
1535.23,19673.00
1536.76,18122.00
1538.29,19551.00
1539.82,18551.00
1541.35,20563.00
1542.88,19801.00
1544.41,19179.00
1545.94,19772.00
1547.47,18445.00
1548.99,18919.00
1550.52,19305.00
1552.04,19887.00
1553.57,20988.00
1555.09,18877.00
1556.61,19908.00
1558.14,19135.00
1559.66,19306.00
1561.18,19767.00
1562.70,18106.00
1564.22,19544.00
1565.74,19120.00
1567.26,17591.00
1568.78,17472.00
1570.29,20722.00
1571.81,18822.00
1573.32,17341.00
1574.84,18391.00
1576.35,19430.00
1577.87,17921.00
1579.38,17830.00
1580.89,16369.00
1582.41,18695.00
1583.92,18188.00
1585.43,19447.00
1586.94,17359.00
1588.45,18383.00
1589.95,19037.00
1591.46,18425.00
1592.97,17806.00
1594.47,18655.00
1595.98,18596.00
1597.49,19551.00
1598.99,17442.00
1600.49,18466.00
1602.00,18006.00
1603.50,18009.00
1605.00,18655.00
1606.50,18855.00
1608.00,18939.00
1609.50,18369.00
1611.00,18236.00
1612.50,18525.00
1614.00,18353.00
1615.49,19278.00
1616.99,18320.00
1618.49,18526.00
1619.98,18813.00
1621.48,18042.00
1622.97,19887.00
1624.46,17651.00
1625.96,18344.00
1627.45,18370.00
1628.94,19060.00
1630.43,17856.00
1631.92,18332.00
1633.41,19422.00
1634.90,17562.00
1636.39,17165.00
1637.87,18097.00
1639.36,17363.00
1640.85,17599.00
1642.33,18390.00
1643.82,20060.00
1645.30,19114.00
1646.78,17708.00
1648.27,20535.00
1649.75,18791.00
1651.23,18657.00
1652.71,20973.00
1654.19,19564.00
1655.67,19295.00
1657.15,19280.00
1658.63,18885.00
1660.11,19250.00
1661.58,18119.00
1663.06,17926.00
1664.54,19112.00
1666.01,19342.00
1667.49,18838.00
1668.96,19574.00
1670.43,18281.00
1671.91,17763.00
1673.38,18919.00
1674.85,18508.00
1676.32,18904.00
1677.79,18276.00
1679.26,17972.00
1680.73,18920.00
1682.20,19355.00
1683.67,18162.00
1685.14,18027.00
1686.60,19134.00
1688.07,18746.00
1689.53,19491.00
1691.00,19003.00
1692.46,18953.00
1693.93,19161.00
1695.39,19577.00
1696.85,20359.00
1698.31,17478.00
1699.77,18951.00
1701.23,18930.00
1702.69,20078.00
1704.15,18188.00
1705.61,19280.00
1707.07,20074.00
1708.53,17640.00
1709.98,18252.00
1711.44,19586.00
1712.90,19545.00
1714.35,19073.00
1715.81,19655.00
1717.26,18428.00
1718.71,19847.00
1720.16,18386.00
1721.62,19161.00
1723.07,19814.00
1724.52,18861.00
1725.97,19087.00
1727.42,19118.00
1728.87,17974.00
1730.32,19227.00
1731.76,19375.00
1733.21,17904.00
1734.66,17899.00
1736.10,17903.00
1737.55,17819.00
1738.99,17801.00
1740.44,18125.00
1741.88,17909.00
1743.32,17412.00
1744.77,19053.00
1746.21,19187.00
1747.65,17860.00
1749.09,19725.00
1750.53,19350.00
1751.97,17636.00
1753.41,18457.00
1754.85,18189.00
1756.29,19748.00
1757.72,17346.00
1759.16,18124.00
1760.60,19263.00
1762.03,17150.00
1763.47,18844.00
