ENLIGHTEN Version,1.6.8
Measurement ID,20190528-110943-644255-WP-00357
Serial Number,WP-00357
Label,Linseed Oil
Integration Time,1
Timestamp,2019-05-28 11:09:43.644255
Note,
Temperature,-99
CCD C0,801.1829833984375
CCD C1,0.12474799901247025
CCD C2,-2.2862799596623518e-05
CCD C3,4.907460215974879e-09
CCD Offset,0
CCD Gain,1.9
Laser Wavelength,785.0
Laser Enable,False
Laser Power,100.0
Laser Temperature,-99
Pixel Count,1952

Wavenumber,Processed
257.31,0.00
259.25,0.00
261.19,0.00
263.13,11.00
265.07,182.00
267.01,446.00
268.95,276.00
270.88,-872.00
272.82,172.00
274.75,206.00
276.68,-30.00
278.61,235.00
280.54,465.00
282.46,934.00
284.39,-104.00
286.31,305.00
288.24,182.00
290.16,-110.00
292.08,-58.00
294.00,-171.00
295.92,756.00
297.83,544.00
299.75,-586.00
301.66,463.00
303.58,169.00
305.49,471.00
307.40,146.00
309.31,406.00
311.22,-8.00
313.12,-280.00
315.03,-62.00
316.93,411.00
318.83,-193.00
320.73,-9.00
322.63,622.00
324.53,302.00
326.43,911.00
328.33,1019.00
330.22,479.00
332.12,920.00
334.01,-89.00
335.90,-48.00
337.79,157.00
339.68,554.00
341.57,441.00
343.45,720.00
345.34,93.00
347.22,1026.00
349.10,374.00
350.98,1522.00
352.86,786.00
354.74,1372.00
356.62,904.00
358.50,1802.00
360.37,1946.00
362.24,2322.00
364.12,2462.00
365.99,3682.00
367.86,3734.00
369.73,5601.00
371.59,5556.00
373.46,7188.00
375.33,6634.00
377.19,9917.00
379.05,11572.00
380.91,14528.00
382.77,14641.00
384.63,18300.00
386.49,19929.00
388.35,24702.00
390.20,23529.00
392.06,29145.00
393.91,28470.00
395.76,32072.00
397.61,32812.00
399.46,34168.00
401.31,31110.00
403.15,35052.00
405.00,31951.00
406.84,34828.00
408.69,32792.00
410.53,34754.00
412.37,31084.00
414.21,34028.00
416.05,32184.00
417.88,32202.00
419.72,30713.00
421.55,33820.00
423.39,32632.00
425.22,34346.00
427.05,31853.00
428.88,34335.00
430.71,28383.00
432.54,33481.00
434.36,32100.00
436.19,33316.00
438.01,32797.00
439.83,33355.00
441.65,30282.00
443.48,33163.00
445.29,31514.00
447.11,31759.00
448.93,30919.00
450.74,31366.00
452.56,31219.00
454.37,32111.00
456.18,30043.00
457.99,30201.00
459.80,31324.00
461.61,30365.00
463.42,29606.00
465.23,32552.00
467.03,29928.00
468.83,31002.00
470.64,30837.00
472.44,31519.00
474.24,31615.00
476.04,30705.00
477.84,30816.00
479.63,30349.00
481.43,29776.00
483.22,30131.00
485.02,30988.00
486.81,30111.00
488.60,30532.00
490.39,30251.00
492.18,30675.00
493.96,32873.00
495.75,32332.00
497.54,32786.00
499.32,30762.00
501.10,33631.00
502.88,32568.00
504.67,31883.00
506.45,31308.00
508.22,31405.00
510.00,32456.00
511.78,32894.00
513.55,31898.00
515.33,31536.00
517.10,32549.00
518.87,32002.00
520.64,32127.00
522.41,32145.00
524.18,32460.00
525.94,33494.00
527.71,30735.00
529.47,30727.00
531.24,34926.00
533.00,34443.00
534.76,31430.00
536.52,31566.00
538.28,31150.00
540.04,34445.00
541.80,33125.00
543.55,33682.00
545.31,32169.00
547.06,33695.00
548.81,32967.00
550.56,32133.00
552.31,32619.00
554.06,34385.00
555.81,33479.00
557.56,32036.00
559.30,32044.00
561.05,33077.00
562.79,31477.00
564.53,34056.00
566.28,31062.00
568.02,32699.00
569.75,31854.00
571.49,34573.00
573.23,32918.00
574.97,35413.00
576.70,33895.00
578.43,34176.00
580.17,32981.00
581.90,35666.00
583.63,33072.00
585.36,35567.00
587.09,33531.00
588.81,34682.00
590.54,32080.00
592.26,34539.00
593.99,32140.00
595.71,34249.00
597.43,32686.00
599.15,33870.00
600.87,33167.00
602.59,34302.00
604.31,32711.00
606.02,34048.00
607.74,32655.00
609.45,35497.00
611.17,33119.00
612.88,34846.00
614.59,33321.00
616.30,36116.00
618.01,33418.00
619.71,34772.00
621.42,32534.00
623.13,33388.00
624.83,33239.00
626.53,34179.00
628.24,32644.00
629.94,35408.00
631.64,33389.00
633.34,33558.00
635.04,33571.00
636.73,36673.00
638.43,32292.00
640.12,34544.00
641.82,32568.00
643.51,34628.00
645.20,32889.00
646.89,33410.00
648.58,35319.00
650.27,32289.00
651.96,32173.00
653.65,33392.00
655.33,33976.00
657.02,34211.00
658.70,33399.00
660.38,34384.00
662.06,33339.00
663.74,35254.00
665.42,33037.00
667.10,34139.00
668.78,34027.00
670.45,33384.00
672.13,33038.00
673.80,34038.00
675.48,32781.00
677.15,34798.00
678.82,31921.00
680.49,33728.00
682.16,31623.00
683.83,33057.00
685.49,33667.00
687.16,33653.00
688.82,31889.00
690.49,31823.00
692.15,32376.00
693.81,32703.00
695.47,31861.00
697.13,30762.00
698.79,31641.00
700.45,31033.00
702.11,30782.00
703.76,30952.00
705.42,30206.00
707.07,30905.00
708.72,30392.00
710.37,30883.00
712.02,29214.00
713.67,29400.00
715.32,30102.00
716.97,30422.00
718.62,28944.00
720.26,29614.00
721.91,29357.00
723.55,27473.00
725.19,29556.00
726.84,29734.00
728.48,28564.00
730.12,30086.00
731.75,27152.00
733.39,28369.00
735.03,29147.00
736.66,27092.00
738.30,26900.00
739.93,27910.00
741.57,26527.00
743.20,27417.00
744.83,25330.00
746.46,28838.00
748.09,26490.00
749.71,27507.00
751.34,26725.00
752.97,27631.00
754.59,25636.00
756.22,26188.00
757.84,26749.00
759.46,27082.00
761.08,25570.00
762.70,26993.00
764.32,26434.00
765.94,27316.00
767.56,27300.00
769.17,26686.00
770.79,25309.00
772.40,27086.00
774.01,25523.00
775.63,26463.00
777.24,26076.00
778.85,24457.00
780.46,25113.00
782.07,25839.00
783.67,25777.00
785.28,25177.00
786.88,26124.00
788.49,26405.00
790.09,25092.00
791.70,26322.00
793.30,26116.00
794.90,25970.00
796.50,25736.00
798.10,27399.00
799.69,24652.00
801.29,27006.00
802.89,25824.00
804.48,25713.00
806.08,25797.00
807.67,26965.00
809.26,25610.00
810.85,24731.00
812.44,27233.00
814.03,27397.00
815.62,25746.00
817.21,27599.00
818.79,25146.00
820.38,27746.00
821.96,26721.00
823.55,26345.00
825.13,26627.00
826.71,28449.00
828.29,26520.00
829.87,27207.00
831.45,27685.00
833.03,28426.00
834.61,27012.00
836.18,28044.00
837.76,27345.00
839.33,27260.00
840.91,25851.00
842.48,27305.00
844.05,27675.00
845.62,27904.00
847.19,26984.00
848.76,27435.00
850.33,27781.00
851.90,28481.00
853.46,27811.00
855.03,28880.00
856.59,27140.00
858.15,27429.00
859.72,27290.00
861.28,28803.00
862.84,28525.00
864.40,27545.00
865.96,28047.00
867.52,29377.00
869.07,27903.00
870.63,30417.00
872.18,27704.00
873.74,28418.00
875.29,28210.00
876.84,29988.00
878.40,27138.00
879.95,28360.00
881.50,28799.00
883.04,28221.00
884.59,28270.00
886.14,29555.00
887.69,28697.00
889.23,29821.00
890.78,29077.00
892.32,28207.00
893.86,27508.00
895.40,28389.00
896.94,28938.00
898.48,30435.00
900.02,28833.00
901.56,31176.00
903.10,28541.00
904.63,29563.00
906.17,28161.00
907.70,29563.00
909.24,29534.00
910.77,28020.00
912.30,29403.00
913.83,28755.00
915.36,28998.00
916.89,29178.00
918.42,29006.00
919.95,30199.00
921.48,28232.00
923.00,29761.00
924.53,27732.00
926.05,28155.00
927.57,28458.00
929.10,30140.00
930.62,28607.00
932.14,28620.00
933.66,28253.00
935.18,29115.00
936.70,27577.00
938.21,29614.00
939.73,29822.00
941.24,30884.00
942.76,27434.00
944.27,30191.00
945.79,28398.00
947.30,29043.00
948.81,27515.00
950.32,29369.00
951.83,27658.00
953.34,28136.00
954.84,27892.00
956.35,29175.00
957.86,27784.00
959.36,26652.00
960.87,27599.00
962.37,28401.00
963.87,28465.00
965.37,27412.00
966.88,25833.00
968.38,28802.00
969.87,27396.00
971.37,27577.00
972.87,27435.00
974.37,27542.00
975.86,26013.00
977.36,27008.00
978.85,26915.00
980.35,26390.00
981.84,26972.00
983.33,25019.00
984.82,24382.00
986.31,25868.00
987.80,24448.00
989.29,24987.00
990.77,23241.00
992.26,24191.00
993.75,23402.00
995.23,22719.00
996.72,24071.00
998.20,25707.00
999.68,24944.00
1001.16,25110.00
1002.64,23096.00
1004.12,23872.00
1005.60,21586.00
1007.08,22566.00
1008.56,23671.00
1010.04,22579.00
1011.51,22553.00
1012.99,22645.00
1014.46,22017.00
1015.93,24074.00
1017.41,21844.00
1018.88,21623.00
1020.35,22266.00
1021.82,22242.00
1023.29,21036.00
1024.76,20468.00
1026.23,22427.00
1027.69,21719.00
1029.16,20035.00
1030.62,22211.00
1032.09,20336.00
1033.55,19803.00
1035.02,19693.00
1036.48,21475.00
1037.94,20516.00
1039.40,20657.00
1040.86,20184.00
1042.32,20379.00
1043.78,18199.00
1045.23,20046.00
1046.69,19812.00
1048.15,21053.00
1049.60,18559.00
1051.05,19346.00
1052.51,18615.00
1053.96,20405.00
1055.41,19099.00
1056.86,19582.00
1058.31,18766.00
1059.76,19692.00
1061.21,19579.00
1062.66,20437.00
1064.10,18870.00
1065.55,20709.00
1067.00,20564.00
1068.44,19772.00
1069.88,19171.00
1071.33,20423.00
1072.77,20088.00
1074.21,21079.00
1075.65,18831.00
1077.09,21357.00
1078.53,19678.00
1079.97,20025.00
1081.41,18739.00
1082.84,19264.00
1084.28,20013.00
1085.71,20099.00
1087.15,18877.00
1088.58,20492.00
1090.02,18845.00
1091.45,20555.00
1092.88,20122.00
1094.31,19848.00
1095.74,19149.00
1097.17,21443.00
1098.60,18609.00
1100.02,19613.00
1101.45,21084.00
1102.88,19959.00
1104.30,17966.00
1105.73,19714.00
1107.15,18812.00
1108.57,19307.00
1109.99,18600.00
1111.42,19516.00
1112.84,19689.00
1114.26,21303.00
1115.68,18369.00
1117.09,20251.00
1118.51,19258.00
1119.93,19406.00
1121.34,18990.00
1122.76,19028.00
1124.17,19566.00
1125.59,18865.00
1127.00,19304.00
1128.41,20002.00
1129.82,19388.00
1131.24,19394.00
1132.65,19444.00
1134.05,20256.00
1135.46,19044.00
1136.87,20239.00
1138.28,19819.00
1139.68,19168.00
1141.09,20111.00
1142.50,20219.00
1143.90,18780.00
1145.30,19521.00
1146.71,18441.00
1148.11,20270.00
1149.51,20677.00
1150.91,20966.00
1152.31,18806.00
1153.71,20899.00
1155.11,20012.00
1156.50,20848.00
1157.90,20579.00
1159.30,21532.00
1160.69,19372.00
1162.08,20137.00
1163.48,19650.00
1164.87,19991.00
1166.26,19384.00
1167.66,19460.00
1169.05,18886.00
1170.44,19817.00
1171.83,20502.00
1173.21,20330.00
1174.60,19675.00
1175.99,19745.00
1177.38,18680.00
1178.76,21449.00
1180.15,20168.00
1181.53,20358.00
1182.92,18627.00
1184.30,20256.00
1185.68,19182.00
1187.06,19668.00
1188.44,19527.00
1189.82,20642.00
1191.20,20024.00
1192.58,20546.00
1193.96,19540.00
1195.34,20011.00
1196.71,21256.00
1198.09,20217.00
1199.46,20992.00
1200.84,20459.00
1202.21,20015.00
1203.58,20311.00
1204.96,19729.00
1206.33,20791.00
1207.70,19435.00
1209.07,19747.00
1210.44,19991.00
1211.81,20045.00
1213.17,21091.00
1214.54,21862.00
1215.91,19915.00
1217.27,20095.00
1218.64,20883.00
1220.00,21455.00
1221.37,19168.00
1222.73,20984.00
1224.09,19293.00
1225.45,19751.00
1226.82,19630.00
1228.18,21190.00
1229.54,20125.00
1230.89,21201.00
1232.25,19408.00
1233.61,20279.00
1234.97,19965.00
1236.32,19799.00
1237.68,19825.00
1239.03,20134.00
1240.39,20186.00
1241.74,19422.00
1243.09,20938.00
1244.45,21381.00
1245.80,19763.00
1247.15,20742.00
1248.50,19295.00
1249.85,20514.00
1251.20,20242.00
1252.54,19692.00
1253.89,19484.00
1255.24,19784.00
1256.58,21440.00
1257.93,20733.00
1259.27,19192.00
1260.62,20700.00
1261.96,19476.00
1263.30,19013.00
1264.64,19342.00
1265.98,19858.00
1267.33,19609.00
1268.67,19354.00
1270.00,19742.00
1271.34,18151.00
1272.68,18774.00
1274.02,19047.00
1275.35,17712.00
1276.69,18713.00
1278.03,17319.00
1279.36,17122.00
1280.69,18042.00
1282.03,18496.00
1283.36,16867.00
1284.69,18081.00
1286.02,17647.00
1287.35,17791.00
1288.68,17016.00
1290.01,17598.00
1291.34,16880.00
1292.67,17001.00
1294.00,17151.00
1295.32,17117.00
1296.65,15852.00
1297.97,16542.00
1299.30,16353.00
1300.62,16989.00
1301.94,16646.00
1303.27,15579.00
1304.59,16484.00
1305.91,15303.00
1307.23,17061.00
1308.55,15988.00
1309.87,15217.00
1311.19,14164.00
1312.51,15007.00
1313.82,14982.00
1315.14,14350.00
1316.46,14940.00
1317.77,14081.00
1319.09,13968.00
1320.40,13651.00
1321.72,14617.00
1323.03,13967.00
1324.34,14537.00
1325.65,14386.00
1326.96,13483.00
1328.27,14225.00
1329.58,13182.00
1330.89,13854.00
1332.20,14213.00
1333.51,12370.00
1334.82,12420.00
1336.12,12861.00
1337.43,13491.00
1338.73,13357.00
1340.04,12896.00
1341.34,13591.00
1342.65,12907.00
1343.95,12878.00
1345.25,12853.00
1346.55,13081.00
1347.85,11824.00
1349.15,13238.00
1350.45,12832.00
1351.75,13041.00
1353.05,13050.00
1354.35,11978.00
1355.65,12885.00
1356.94,12667.00
1358.24,13160.00
1359.53,12170.00
1360.83,12773.00
1362.12,13245.00
1363.42,14170.00
1364.71,12308.00
1366.00,12900.00
1367.29,13195.00
1368.58,12684.00
1369.87,11832.00
1371.16,11873.00
1372.45,12572.00
1373.74,12591.00
1375.03,11356.00
1376.32,13092.00
1377.60,12330.00
1378.89,12913.00
1380.17,11959.00
1381.46,13119.00
1382.74,12728.00
1384.03,12612.00
1385.31,11944.00
1386.59,12793.00
1387.87,12956.00
1389.15,12960.00
1390.43,13736.00
1391.71,12240.00
1392.99,11688.00
1394.27,13706.00
1395.55,13527.00
1396.83,13698.00
1398.11,11635.00
1399.38,12243.00
1400.66,13475.00
1401.93,13461.00
1403.21,13056.00
1404.48,12382.00
1405.75,13403.00
1407.03,13473.00
1408.30,13132.00
1409.57,13114.00
1410.84,12673.00
1412.11,13466.00
1413.38,13628.00
1414.65,13318.00
1415.92,13030.00
1417.19,14120.00
1418.46,12544.00
1419.72,12767.00
1420.99,13088.00
1422.25,14617.00
1423.52,13787.00
1424.78,14090.00
1426.05,13132.00
1427.31,13743.00
1428.57,14567.00
1429.84,14163.00
1431.10,14967.00
1432.36,14507.00
1433.62,15776.00
1434.88,14608.00
1436.14,15481.00
1437.40,14162.00
1438.65,14786.00
1439.91,14768.00
1441.17,15900.00
1442.43,14678.00
1443.68,15272.00
1444.94,16377.00
1446.19,15506.00
1447.44,16407.00
1448.70,15433.00
1449.95,14419.00
1451.20,14607.00
1452.46,16378.00
1453.71,16781.00
1454.96,13977.00
1456.21,15162.00
1457.46,14712.00
1458.71,15427.00
1459.95,14818.00
1461.20,15350.00
1462.45,14486.00
1463.70,15265.00
1464.94,15521.00
1466.19,15904.00
1467.43,15002.00
1468.68,14159.00
1469.92,14021.00
1471.16,13841.00
1472.41,14447.00
1473.65,13906.00
1474.89,15395.00
1476.13,13954.00
1477.37,13277.00
1478.61,13353.00
1479.85,14915.00
1481.09,13680.00
1482.33,12824.00
1483.57,13684.00
1484.80,13241.00
1486.04,13453.00
1487.28,14051.00
1488.51,14163.00
1489.75,13223.00
1490.98,13308.00
1492.21,13282.00
1493.45,13598.00
1494.68,13983.00
1495.91,13128.00
1497.14,13276.00
1498.37,13813.00
1499.61,13367.00
1500.84,12554.00
1502.06,10812.00
1503.29,12675.00
1504.52,13566.00
1505.75,12615.00
1506.98,11730.00
1508.20,12565.00
1509.43,12708.00
1510.66,12461.00
1511.88,12443.00
1513.11,12625.00
1514.33,12251.00
1515.55,12233.00
1516.78,12033.00
1518.00,12278.00
1519.22,12495.00
1520.44,12268.00
1521.66,12641.00
1522.88,11977.00
1524.10,11924.00
1525.32,11682.00
1526.54,12773.00
1527.76,11864.00
1528.98,11322.00
1530.19,11559.00
1531.41,13561.00
1532.63,11583.00
1533.84,12687.00
1535.06,10999.00
1536.27,11173.00
1537.48,12402.00
1538.70,11931.00
1539.91,10581.00
1541.12,11448.00
1542.33,10869.00
1543.55,10967.00
1544.76,11011.00
1545.97,10483.00
1547.18,10859.00
1548.39,11093.00
1549.59,10270.00
1550.80,10704.00
1552.01,10513.00
1553.22,11095.00
1554.42,9792.00
1555.63,10824.00
1556.84,10384.00
1558.04,10914.00
1559.24,11339.00
1560.45,9999.00
1561.65,9619.00
1562.86,10939.00
1564.06,10679.00
1565.26,10394.00
1566.46,9485.00
1567.66,9757.00
1568.86,9348.00
1570.06,9438.00
1571.26,8867.00
1572.46,10226.00
1573.66,10048.00
1574.86,9292.00
1576.05,8982.00
1577.25,9172.00
1578.45,9702.00
1579.64,8732.00
1580.84,9457.00
1582.03,8909.00
1583.23,9635.00
1584.42,8792.00
1585.61,8409.00
1586.81,9233.00
1588.00,9053.00
1589.19,9064.00
1590.38,8798.00
1591.57,9051.00
1592.76,9768.00
1593.95,9264.00
1595.14,8528.00
1596.33,9523.00
1597.52,7860.00
1598.71,8718.00
1599.90,8941.00
1601.08,7872.00
1602.27,7904.00
1603.45,9039.00
1604.64,8786.00
1605.83,8822.00
1607.01,9956.00
1608.19,8687.00
1609.38,9305.00
1610.56,9035.00
1611.74,8704.00
1612.92,8700.00
1614.11,7401.00
1615.29,8771.00
1616.47,9114.00
1617.65,8396.00
1618.83,7935.00
1620.01,8216.00
1621.18,8542.00
1622.36,8204.00
1623.54,7879.00
1624.72,9248.00
1625.89,7665.00
1627.07,8825.00
1628.25,8806.00
1629.42,8454.00
1630.60,8055.00
1631.77,7574.00
1632.94,7947.00
1634.12,8614.00
1635.29,8952.00
1636.46,8615.00
1637.63,8239.00
1638.80,7607.00
1639.98,8795.00
1641.15,8265.00
1642.32,8884.00
1643.49,9067.00
1644.65,9237.00
1645.82,8175.00
1646.99,9764.00
1648.16,8988.00
1649.33,8732.00
1650.49,8892.00
1651.66,9512.00
1652.82,9201.00
1653.99,8595.00
1655.15,10133.00
1656.32,9643.00
1657.48,8874.00
1658.65,9644.00
1659.81,9300.00
1660.97,9805.00
1662.13,8704.00
1663.29,8568.00
1664.45,8423.00
1665.62,8660.00
1666.78,9255.00
1667.94,8059.00
1669.09,8945.00
1670.25,7996.00
1671.41,8427.00
1672.57,8379.00
1673.73,8474.00
1674.88,8221.00
1676.04,7538.00
1677.20,8380.00
1678.35,7358.00
1679.51,7259.00
1680.66,8123.00
1681.82,7597.00
1682.97,7672.00
1684.12,7437.00
1685.27,8493.00
1686.43,7628.00
1687.58,7260.00
1688.73,7601.00
1689.88,8049.00
1691.03,8398.00
1692.18,6932.00
1693.33,5104.00
1694.48,8177.00
1695.63,6533.00
1696.78,7645.00
1697.93,7848.00
1699.07,6210.00
1700.22,7083.00
1701.37,6885.00
1702.51,8066.00
1703.66,7583.00
1704.80,7034.00
1705.95,8104.00
1707.09,7470.00
1708.24,6514.00
1709.38,7512.00
1710.52,6064.00
1711.67,7997.00
1712.81,7292.00
1713.95,8054.00
1715.09,6855.00
1716.23,7802.00
1717.37,7910.00
1718.51,7430.00
1719.65,6376.00
1720.79,7987.00
1721.93,7402.00
1723.07,7532.00
1724.20,7288.00
1725.34,7853.00
1726.48,7085.00
1727.62,7733.00
1728.75,6977.00
1729.89,6503.00
1731.02,7862.00
1732.16,6795.00
1733.29,7565.00
1734.43,7245.00
1735.56,8137.00
1736.69,8118.00
1737.82,7092.00
1738.96,7447.00
1740.09,8592.00
1741.22,7860.00
1742.35,7400.00
1743.48,6689.00
1744.61,7211.00
1745.74,7376.00
1746.87,7583.00
1748.00,7412.00
1749.13,6937.00
1750.25,7936.00
1751.38,8282.00
1752.51,6778.00
1753.64,7630.00
1754.76,8259.00
1755.89,7764.00
1757.01,7046.00
1758.14,8054.00
1759.26,7850.00
1760.39,7122.00
1761.51,8559.00
1762.63,7671.00
1763.76,7257.00
1764.88,7197.00
1766.00,7665.00
1767.12,7669.00
1768.24,7328.00
1769.37,7583.00
1770.49,8512.00
1771.61,8337.00
1772.73,7882.00
1773.85,7622.00
1774.96,6854.00
1776.08,8227.00
1777.20,7131.00
1778.32,8022.00
1779.44,7508.00
1780.55,6860.00
1781.67,7253.00
1782.78,7817.00
1783.90,7397.00
1785.01,7325.00
1786.13,7244.00
1787.24,7822.00
1788.36,6648.00
1789.47,6311.00
1790.58,6862.00
1791.70,7118.00
1792.81,8100.00
1793.92,6441.00
1795.03,7669.00
1796.14,6810.00
1797.26,7006.00
1798.37,6494.00
1799.48,7165.00
1800.58,5611.00
1801.69,7180.00
1802.80,6834.00
1803.91,6952.00
1805.02,7571.00
1806.13,6179.00
1807.23,5635.00
1808.34,6203.00
1809.45,7466.00
1810.55,6264.00
1811.66,6993.00
1812.76,6400.00
1813.87,6082.00
1814.97,6269.00
1816.08,6668.00
1817.18,6672.00
1818.28,6347.00
1819.39,6818.00
1820.49,5950.00
1821.59,5699.00
1822.69,6700.00
1823.79,6201.00
1824.90,6128.00
1826.00,5794.00
1827.10,6003.00
1828.20,5605.00
1829.30,6059.00
1830.39,5743.00
1831.49,5522.00
1832.59,4695.00
1833.69,5967.00
1834.79,5609.00
1835.88,5467.00
1836.98,6264.00
1838.08,6102.00
1839.17,5574.00
1840.27,5710.00
1841.36,5396.00
1842.46,5087.00
1843.55,5445.00
1844.65,5163.00
1845.74,5107.00
1846.83,6162.00
1847.93,5663.00
1849.02,5836.00
1850.11,5467.00
1851.20,5102.00
1852.30,5526.00
1853.39,5442.00
1854.48,4237.00
1855.57,5413.00
1856.66,4892.00
1857.75,5698.00
1858.84,4717.00
1859.93,4588.00
1861.01,5389.00
1862.10,4881.00
1863.19,4861.00
1864.28,4790.00
1865.37,5246.00
1866.45,4640.00
1867.54,4426.00
1868.62,4534.00
