ENLIGHTEN Version,1.6.8
Measurement ID,20190528-110439-058821-WP-00357
Serial Number,WP-00357
Label,MEK
Integration Time,10
Timestamp,2019-05-28 11:04:39.058821
Note,
Temperature,-99
CCD C0,801.1829833984375
CCD C1,0.12474799901247025
CCD C2,-2.2862799596623518e-05
CCD C3,4.907460215974879e-09
CCD Offset,0
CCD Gain,1.9
Laser Wavelength,785.0
Laser Enable,False
Laser Power,100.0
Laser Temperature,-99
Pixel Count,1952

Wavenumber,Processed
257.31,0.00
259.25,0.00
261.19,0.00
263.13,263.00
265.07,62.00
267.01,-187.00
268.95,-814.00
270.88,266.00
272.82,349.00
274.75,-85.00
276.68,-10.00
278.61,386.00
280.54,-809.00
282.46,-997.00
284.39,156.00
286.31,-387.00
288.24,452.00
290.16,-673.00
292.08,-519.00
294.00,280.00
295.92,-335.00
297.83,394.00
299.75,668.00
301.66,-25.00
303.58,-548.00
305.49,-210.00
307.40,443.00
309.31,521.00
311.22,-58.00
313.12,-239.00
315.03,-171.00
316.93,-431.00
318.83,-113.00
320.73,-98.00
322.63,-168.00
324.53,-217.00
326.43,-8.00
328.33,-127.00
330.22,496.00
332.12,-683.00
334.01,8.00
335.90,-75.00
337.79,541.00
339.68,-399.00
341.57,-156.00
343.45,534.00
345.34,-239.00
347.22,-167.00
349.10,-263.00
350.98,-347.00
352.86,445.00
354.74,306.00
356.62,782.00
358.50,619.00
360.37,407.00
362.24,79.00
364.12,491.00
365.99,426.00
367.86,318.00
369.73,155.00
371.59,1096.00
373.46,909.00
375.33,1120.00
377.19,1220.00
379.05,321.00
380.91,545.00
382.77,1614.00
384.63,873.00
386.49,1094.00
388.35,1862.00
390.20,2093.00
392.06,4110.00
393.91,2631.00
395.76,3757.00
397.61,4053.00
399.46,6541.00
401.31,6244.00
403.15,8542.00
405.00,8668.00
406.84,9381.00
408.69,8530.00
410.53,7249.00
412.37,6991.00
414.21,5532.00
416.05,5219.00
417.88,3737.00
419.72,3071.00
421.55,2290.00
423.39,1776.00
425.22,1692.00
427.05,2114.00
428.88,1929.00
430.71,1765.00
432.54,1329.00
434.36,1300.00
436.19,1624.00
438.01,1008.00
439.83,2092.00
441.65,802.00
443.48,1625.00
445.29,1161.00
447.11,1908.00
448.93,1244.00
450.74,838.00
452.56,1394.00
454.37,980.00
456.18,1150.00
457.99,1146.00
459.80,1661.00
461.61,1781.00
463.42,1387.00
465.23,1248.00
467.03,1294.00
468.83,1286.00
470.64,2208.00
472.44,1746.00
474.24,1178.00
476.04,1465.00
477.84,654.00
479.63,928.00
481.43,816.00
483.22,865.00
485.02,1076.00
486.81,1275.00
488.60,1437.00
490.39,1114.00
492.18,1868.00
493.96,1430.00
495.75,437.00
497.54,1160.00
499.32,1558.00
501.10,1073.00
502.88,936.00
504.67,1488.00
506.45,1033.00
508.22,2114.00
510.00,1972.00
511.78,1838.00
513.55,2964.00
515.33,2167.00
517.10,2830.00
518.87,3037.00
520.64,2378.00
522.41,1974.00
524.18,2617.00
525.94,1584.00
527.71,1933.00
529.47,1901.00
531.24,2197.00
533.00,497.00
534.76,1528.00
536.52,1090.00
538.28,1943.00
540.04,2039.00
541.80,1346.00
543.55,1262.00
545.31,724.00
547.06,1442.00
548.81,943.00
550.56,1735.00
552.31,1222.00
554.06,2683.00
555.81,1516.00
557.56,1579.00
559.30,2603.00
561.05,2233.00
562.79,2120.00
564.53,2920.00
566.28,3142.00
568.02,3393.00
569.75,4366.00
571.49,4427.00
573.23,5133.00
574.97,6353.00
576.70,5863.00
578.43,8270.00
580.17,7164.00
581.90,10090.00
583.63,10507.00
585.36,11904.00
587.09,11720.00
588.81,12611.00
590.54,12356.00
592.26,13131.00
593.99,10375.00
595.71,10192.00
597.43,8495.00
599.15,8550.00
600.87,5815.00
602.59,4774.00
604.31,3915.00
606.02,2224.00
607.74,2175.00
609.45,2653.00
611.17,1985.00
612.88,1910.00
614.59,2039.00
616.30,1512.00
618.01,1418.00
619.71,1630.00
621.42,1720.00
623.13,1391.00
624.83,904.00
626.53,1551.00
628.24,1382.00
629.94,953.00
631.64,1045.00
633.34,438.00
635.04,-55.00
636.73,819.00
638.43,939.00
640.12,503.00
641.82,773.00
643.51,1010.00
645.20,665.00
646.89,590.00
648.58,862.00
650.27,84.00
651.96,1041.00
653.65,411.00
655.33,-77.00
657.02,475.00
658.70,1418.00
660.38,462.00
662.06,102.00
663.74,719.00
665.42,717.00
667.10,786.00
668.78,642.00
670.45,484.00
672.13,867.00
673.80,1477.00
675.48,551.00
677.15,-54.00
678.82,366.00
680.49,1961.00
682.16,936.00
683.83,1035.00
685.49,1033.00
687.16,338.00
688.82,468.00
690.49,694.00
692.15,395.00
693.81,571.00
695.47,698.00
697.13,354.00
698.79,586.00
700.45,887.00
702.11,1004.00
703.76,729.00
705.42,686.00
707.07,1089.00
708.72,926.00
710.37,1082.00
712.02,1386.00
713.67,1118.00
715.32,1214.00
716.97,1925.00
718.62,1054.00
720.26,1478.00
721.91,1172.00
723.55,1478.00
725.19,2081.00
726.84,1792.00
728.48,2147.00
730.12,2160.00
731.75,3282.00
733.39,3712.00
735.03,3829.00
736.66,5369.00
738.30,5944.00
739.93,7337.00
741.57,9493.00
743.20,9485.00
744.83,11646.00
746.46,15272.00
748.09,18872.00
749.71,20330.00
751.34,23410.00
752.97,30332.00
754.59,32763.00
756.22,37544.00
757.84,41787.00
759.46,44991.00
761.08,45522.00
762.70,43924.00
764.32,41323.00
765.94,37244.00
767.56,31250.00
769.17,26538.00
770.79,20430.00
772.40,16332.00
774.01,13254.00
775.63,9940.00
777.24,7056.00
778.85,5783.00
780.46,4706.00
782.07,4221.00
783.67,4049.00
785.28,3541.00
786.88,3352.00
788.49,3100.00
790.09,1883.00
791.70,2356.00
793.30,1465.00
794.90,1606.00
796.50,1483.00
798.10,2049.00
799.69,1349.00
801.29,1835.00
802.89,762.00
804.48,2271.00
806.08,774.00
807.67,1731.00
809.26,696.00
810.85,2223.00
812.44,1035.00
814.03,1204.00
815.62,719.00
817.21,1070.00
818.79,1301.00
820.38,928.00
821.96,641.00
823.55,953.00
825.13,800.00
826.71,433.00
828.29,1035.00
829.87,990.00
831.45,1102.00
833.03,622.00
834.61,1297.00
836.18,852.00
837.76,221.00
839.33,492.00
840.91,680.00
842.48,1307.00
844.05,1892.00
845.62,604.00
847.19,408.00
848.76,1200.00
850.33,930.00
851.90,997.00
853.46,1105.00
855.03,832.00
856.59,1459.00
858.15,1174.00
859.72,911.00
861.28,1333.00
862.84,97.00
864.40,65.00
865.96,915.00
867.52,-8.00
869.07,716.00
870.63,560.00
872.18,787.00
873.74,-40.00
875.29,753.00
876.84,47.00
878.40,367.00
879.95,353.00
881.50,1068.00
883.04,492.00
884.59,556.00
886.14,664.00
887.69,814.00
889.23,241.00
890.78,1043.00
892.32,1242.00
893.86,579.00
895.40,933.00
896.94,418.00
898.48,1035.00
900.02,407.00
901.56,1787.00
903.10,589.00
904.63,1391.00
906.17,1331.00
907.70,1700.00
909.24,716.00
910.77,974.00
912.30,1949.00
913.83,1526.00
915.36,2438.00
916.89,1570.00
918.42,1370.00
919.95,1362.00
921.48,1775.00
923.00,2149.00
924.53,1971.00
926.05,2621.00
927.57,2330.00
929.10,1971.00
930.62,2073.00
932.14,3949.00
933.66,3028.00
935.18,4084.00
936.70,4316.00
938.21,4160.00
939.73,4408.00
941.24,5298.00
942.76,3904.00
944.27,3984.00
945.79,4410.00
947.30,4516.00
948.81,5492.00
950.32,3938.00
951.83,4656.00
953.34,4356.00
954.84,4169.00
956.35,4120.00
957.86,3498.00
959.36,3339.00
960.87,2992.00
962.37,3417.00
963.87,2739.00
965.37,4481.00
966.88,3370.00
968.38,3264.00
969.87,2298.00
971.37,3602.00
972.87,3752.00
974.37,3951.00
975.86,2805.00
977.36,3194.00
978.85,3371.00
980.35,4735.00
981.84,4174.00
983.33,5177.00
984.82,6106.00
986.31,4813.00
987.80,5509.00
989.29,6314.00
990.77,6494.00
992.26,6657.00
993.75,7107.00
995.23,5664.00
996.72,5067.00
998.20,6328.00
999.68,5953.00
1001.16,5457.00
1002.64,5716.00
1004.12,3999.00
1005.60,4799.00
1007.08,3566.00
1008.56,3539.00
1010.04,3960.00
1011.51,2837.00
1012.99,3031.00
1014.46,2748.00
1015.93,2710.00
1017.41,2546.00
1018.88,2582.00
1020.35,2027.00
1021.82,2647.00
1023.29,1760.00
1024.76,1519.00
1026.23,1936.00
1027.69,821.00
1029.16,1484.00
1030.62,1375.00
1032.09,1377.00
1033.55,1252.00
1035.02,866.00
1036.48,1378.00
1037.94,1192.00
1039.40,786.00
1040.86,1504.00
1042.32,876.00
1043.78,1002.00
1045.23,1272.00
1046.69,1918.00
1048.15,1853.00
1049.60,797.00
1051.05,1504.00
1052.51,1386.00
1053.96,1051.00
1055.41,950.00
1056.86,1263.00
1058.31,1460.00
1059.76,1060.00
1061.21,1835.00
1062.66,1571.00
1064.10,608.00
1065.55,1852.00
1067.00,1966.00
1068.44,2550.00
1069.88,2061.00
1071.33,3654.00
1072.77,4340.00
1074.21,5002.00
1075.65,5634.00
1077.09,7802.00
1078.53,7582.00
1079.97,9994.00
1081.41,10873.00
1082.84,12133.00
1084.28,12231.00
1085.71,12929.00
1087.15,12911.00
1088.58,13225.00
1090.02,11100.00
1091.45,11553.00
1092.88,10182.00
1094.31,9815.00
1095.74,8086.00
1097.17,7534.00
1098.60,6482.00
1100.02,6077.00
1101.45,4959.00
1102.88,4446.00
1104.30,4355.00
1105.73,2372.00
1107.15,1844.00
1108.57,1903.00
1109.99,2372.00
1111.42,1900.00
1112.84,1225.00
1114.26,1621.00
1115.68,1481.00
1117.09,1354.00
1118.51,1131.00
1119.93,1887.00
1121.34,767.00
1122.76,1298.00
1124.17,1712.00
1125.59,2235.00
1127.00,1230.00
1128.41,452.00
1129.82,313.00
1131.24,2174.00
1132.65,684.00
1134.05,1487.00
1135.46,457.00
1136.87,1505.00
1138.28,1167.00
1139.68,474.00
1141.09,771.00
1142.50,945.00
1143.90,1890.00
1145.30,791.00
1146.71,1470.00
1148.11,2000.00
1149.51,1149.00
1150.91,1051.00
1152.31,1407.00
1153.71,1277.00
1155.11,1138.00
1156.50,2054.00
1157.90,2056.00
1159.30,2530.00
1160.69,1682.00
1162.08,2813.00
1163.48,2910.00
1164.87,2984.00
1166.26,3269.00
1167.66,3204.00
1169.05,2828.00
1170.44,3876.00
1171.83,2454.00
1173.21,4202.00
1174.60,3305.00
1175.99,3221.00
1177.38,3257.00
1178.76,2711.00
1180.15,2095.00
1181.53,2730.00
1182.92,2082.00
1184.30,2362.00
1185.68,2232.00
1187.06,2204.00
1188.44,1584.00
1189.82,2189.00
1191.20,2265.00
1192.58,1033.00
1193.96,1957.00
1195.34,2320.00
1196.71,1639.00
1198.09,1611.00
1199.46,1375.00
1200.84,1574.00
1202.21,1684.00
1203.58,1670.00
1204.96,1624.00
1206.33,1813.00
1207.70,1071.00
1209.07,1283.00
1210.44,1905.00
1211.81,1996.00
1213.17,1997.00
1214.54,1935.00
1215.91,413.00
1217.27,839.00
1218.64,701.00
1220.00,894.00
1221.37,1181.00
1222.73,1546.00
1224.09,1400.00
1225.45,347.00
1226.82,464.00
1228.18,1495.00
1229.54,1401.00
1230.89,1400.00
1232.25,1136.00
1233.61,2463.00
1234.97,1264.00
1236.32,1808.00
1237.68,2332.00
1239.03,1966.00
1240.39,1817.00
1241.74,3112.00
1243.09,2792.00
1244.45,2731.00
1245.80,2799.00
1247.15,4330.00
1248.50,3252.00
1249.85,3745.00
1251.20,3882.00
1252.54,3396.00
1253.89,3268.00
1255.24,4150.00
1256.58,3583.00
1257.93,3953.00
1259.27,2551.00
1260.62,3735.00
1261.96,3366.00
1263.30,3577.00
1264.64,2213.00
1265.98,3409.00
1267.33,2504.00
1268.67,2852.00
1270.00,2466.00
1271.34,1634.00
1272.68,2046.00
1274.02,1820.00
1275.35,2817.00
1276.69,2383.00
1278.03,1857.00
1279.36,1987.00
1280.69,2160.00
1282.03,1596.00
1283.36,1259.00
1284.69,1132.00
1286.02,314.00
1287.35,1674.00
1288.68,1719.00
1290.01,1050.00
1291.34,972.00
1292.67,938.00
1294.00,828.00
1295.32,940.00
1296.65,1511.00
1297.97,1279.00
1299.30,1238.00
1300.62,1376.00
1301.94,551.00
1303.27,1207.00
1304.59,1563.00
1305.91,386.00
1307.23,883.00
1308.55,966.00
1309.87,2337.00
1311.19,1050.00
1312.51,487.00
1313.82,1025.00
1315.14,376.00
1316.46,1569.00
1317.77,700.00
1319.09,1698.00
1320.40,1481.00
1321.72,1328.00
1323.03,2172.00
1324.34,1848.00
1325.65,1337.00
1326.96,1028.00
1328.27,1656.00
1329.58,1694.00
1330.89,910.00
1332.20,2400.00
1333.51,2965.00
1334.82,2209.00
1336.12,2292.00
1337.43,2302.00
1338.73,1674.00
1340.04,2570.00
1341.34,2128.00
1342.65,2366.00
1343.95,2612.00
1345.25,2725.00
1346.55,2289.00
1347.85,3636.00
1349.15,3152.00
1350.45,2382.00
1351.75,2563.00
1353.05,2784.00
1354.35,3334.00
1355.65,2646.00
1356.94,2157.00
1358.24,2090.00
1359.53,2192.00
1360.83,2588.00
1362.12,2382.00
1363.42,2733.00
1364.71,2855.00
1366.00,3203.00
1367.29,1515.00
1368.58,2548.00
1369.87,1997.00
1371.16,1804.00
1372.45,2482.00
1373.74,2137.00
1375.03,2178.00
1376.32,3087.00
1377.60,3683.00
1378.89,3537.00
1380.17,2972.00
1381.46,2855.00
1382.74,3175.00
1384.03,3666.00
1385.31,2963.00
1386.59,3217.00
1387.87,2914.00
1389.15,3883.00
1390.43,3598.00
1391.71,5176.00
1392.99,4031.00
1394.27,5105.00
1395.55,4842.00
1396.83,5965.00
1398.11,4785.00
1399.38,6054.00
1400.66,5955.00
1401.93,6378.00
1403.21,8189.00
1404.48,6997.00
1405.75,7496.00
1407.03,6497.00
1408.30,8374.00
1409.57,9421.00
1410.84,9912.00
1412.11,8270.00
1413.38,10016.00
1414.65,9353.00
1415.92,9456.00
1417.19,11042.00
1418.46,11105.00
1419.72,11723.00
1420.99,11689.00
1422.25,11780.00
1423.52,10613.00
1424.78,12721.00
1426.05,12405.00
1427.31,10107.00
1428.57,11450.00
1429.84,11428.00
1431.10,10011.00
1432.36,11364.00
1433.62,11675.00
1434.88,11895.00
1436.14,10943.00
1437.40,11552.00
1438.65,11119.00
1439.91,12771.00
1441.17,10790.00
1442.43,11718.00
1443.68,10453.00
1444.94,10435.00
1446.19,11568.00
1447.44,11692.00
1448.70,11495.00
1449.95,11438.00
1451.20,11410.00
1452.46,11091.00
1453.71,10510.00
1454.96,12151.00
1456.21,10716.00
1457.46,10685.00
1458.71,10530.00
1459.95,11346.00
1461.20,10138.00
1462.45,10475.00
1463.70,10437.00
1464.94,9167.00
1466.19,9414.00
1467.43,8957.00
1468.68,9682.00
1469.92,8580.00
1471.16,7032.00
1472.41,6911.00
1473.65,6872.00
1474.89,6697.00
1476.13,6415.00
1477.37,6535.00
1478.61,6404.00
1479.85,6072.00
1481.09,5923.00
1482.33,4544.00
1483.57,4271.00
1484.80,5320.00
1486.04,4335.00
1487.28,4975.00
1488.51,3740.00
1489.75,4405.00
1490.98,3385.00
1492.21,4422.00
1493.45,3697.00
1494.68,3894.00
1495.91,2638.00
1497.14,3107.00
1498.37,3022.00
1499.61,3029.00
1500.84,3374.00
1502.06,3449.00
1503.29,3635.00
1504.52,3141.00
1505.75,3472.00
1506.98,3341.00
1508.20,2592.00
1509.43,2101.00
1510.66,2581.00
1511.88,1871.00
1513.11,2603.00
1514.33,2385.00
1515.55,2104.00
1516.78,1782.00
1518.00,2486.00
1519.22,2143.00
1520.44,2165.00
1521.66,1712.00
1522.88,2122.00
1524.10,2396.00
1525.32,3596.00
1526.54,1914.00
1527.76,2425.00
1528.98,2630.00
1530.19,1587.00
1531.41,2300.00
1532.63,2045.00
1533.84,2006.00
1535.06,2684.00
1536.27,545.00
1537.48,1868.00
1538.70,2270.00
1539.91,1296.00
1541.12,1477.00
1542.33,2014.00
1543.55,2926.00
1544.76,1624.00
1545.97,1991.00
1547.18,1479.00
1548.39,1312.00
1549.59,1662.00
1550.80,1789.00
1552.01,1463.00
1553.22,1627.00
1554.42,1197.00
1555.63,1478.00
1556.84,1148.00
1558.04,1212.00
1559.24,541.00
1560.45,1066.00
1561.65,1738.00
1562.86,1877.00
1564.06,1678.00
1565.26,1067.00
1566.46,1301.00
1567.66,572.00
1568.86,273.00
1570.06,-51.00
1571.26,411.00
1572.46,1264.00
1573.66,-9.00
1574.86,1150.00
1576.05,964.00
1577.25,1120.00
1578.45,1640.00
1579.64,440.00
1580.84,326.00
1582.03,325.00
1583.23,638.00
1584.42,1058.00
1585.61,1279.00
1586.81,1003.00
1588.00,289.00
1589.19,106.00
1590.38,991.00
1591.57,843.00
1592.76,1770.00
1593.95,611.00
1595.14,379.00
1596.33,313.00
1597.52,1364.00
1598.71,112.00
1599.90,663.00
1601.08,1209.00
1602.27,781.00
1603.45,-24.00
1604.64,506.00
1605.83,940.00
1607.01,795.00
1608.19,1112.00
1609.38,151.00
1610.56,1269.00
1611.74,299.00
1612.92,1025.00
1614.11,1162.00
1615.29,1432.00
1616.47,719.00
1617.65,975.00
1618.83,223.00
1620.01,41.00
1621.18,367.00
1622.36,696.00
1623.54,885.00
1624.72,382.00
1625.89,379.00
1627.07,1216.00
1628.25,369.00
1629.42,701.00
1630.60,181.00
1631.77,710.00
1632.94,291.00
1634.12,767.00
1635.29,892.00
1636.46,1103.00
1637.63,166.00
1638.80,723.00
1639.98,836.00
1641.15,667.00
1642.32,621.00
1643.49,989.00
1644.65,599.00
1645.82,608.00
1646.99,364.00
1648.16,134.00
1649.33,443.00
1650.49,33.00
1651.66,266.00
1652.82,944.00
1653.99,987.00
1655.15,285.00
1656.32,-380.00
1657.48,565.00
1658.65,981.00
1659.81,946.00
1660.97,425.00
1662.13,635.00
1663.29,490.00
1664.45,394.00
1665.62,765.00
1666.78,478.00
1667.94,223.00
1669.09,924.00
1670.25,1544.00
1671.41,1759.00
1672.57,1189.00
1673.73,1607.00
1674.88,1604.00
1676.04,693.00
1677.20,1252.00
1678.35,536.00
1679.51,923.00
1680.66,1737.00
1681.82,626.00
1682.97,1512.00
1684.12,891.00
1685.27,1953.00
1686.43,1730.00
1687.58,790.00
1688.73,946.00
1689.88,1096.00
1691.03,1039.00
1692.18,1797.00
1693.33,1448.00
1694.48,2649.00
1695.63,2667.00
1696.78,3505.00
1697.93,3792.00
1699.07,4456.00
1700.22,3521.00
1701.37,4940.00
1702.51,5395.00
1703.66,5730.00
1704.80,6958.00
1705.95,6846.00
1707.09,7764.00
1708.24,7038.00
1709.38,7868.00
1710.52,6697.00
1711.67,8156.00
1712.81,7708.00
1713.95,8059.00
1715.09,6671.00
1716.23,7735.00
1717.37,7966.00
1718.51,6543.00
1719.65,7249.00
1720.79,7502.00
1721.93,6317.00
1723.07,5616.00
1724.20,4663.00
1725.34,5381.00
1726.48,5608.00
1727.62,5388.00
1728.75,5425.00
1729.89,3382.00
1731.02,3020.00
1732.16,3266.00
1733.29,3083.00
1734.43,2829.00
1735.56,3828.00
1736.69,1990.00
1737.82,4060.00
1738.96,2438.00
1740.09,2442.00
1741.22,2496.00
1742.35,1605.00
1743.48,2125.00
1744.61,1038.00
1745.74,2138.00
1746.87,1856.00
1748.00,2379.00
1749.13,1073.00
1750.25,1559.00
1751.38,1418.00
1752.51,1434.00
1753.64,1517.00
1754.76,496.00
1755.89,875.00
1757.01,848.00
1758.14,589.00
1759.26,683.00
1760.39,576.00
1761.51,441.00
1762.63,78.00
1763.76,1044.00
1764.88,603.00
1766.00,461.00
1767.12,229.00
1768.24,-260.00
1769.37,640.00
1770.49,758.00
1771.61,601.00
1772.73,454.00
1773.85,255.00
1774.96,772.00
1776.08,-1.00
1777.20,305.00
1778.32,136.00
1779.44,305.00
1780.55,683.00
1781.67,120.00
1782.78,-12.00
1783.90,420.00
1785.01,595.00
1786.13,517.00
1787.24,424.00
1788.36,198.00
1789.47,697.00
1790.58,749.00
1791.70,561.00
1792.81,578.00
1793.92,201.00
1795.03,915.00
1796.14,1408.00
1797.26,-66.00
1798.37,339.00
1799.48,451.00
1800.58,412.00
1801.69,-203.00
1802.80,421.00
1803.91,670.00
1805.02,311.00
1806.13,949.00
1807.23,87.00
1808.34,324.00
1809.45,444.00
1810.55,428.00
1811.66,-94.00
1812.76,316.00
1813.87,334.00
1814.97,230.00
1816.08,19.00
1817.18,86.00
1818.28,191.00
1819.39,485.00
1820.49,111.00
1821.59,251.00
1822.69,235.00
1823.79,-46.00
1824.90,1150.00
1826.00,186.00
1827.10,664.00
1828.20,-347.00
1829.30,381.00
1830.39,-69.00
1831.49,827.00
1832.59,340.00
1833.69,932.00
1834.79,-24.00
1835.88,-55.00
1836.98,630.00
1838.08,598.00
1839.17,764.00
1840.27,409.00
1841.36,-251.00
1842.46,563.00
1843.55,571.00
1844.65,110.00
1845.74,17.00
1846.83,672.00
1847.93,194.00
1849.02,737.00
1850.11,262.00
1851.20,-409.00
1852.30,-198.00
1853.39,-148.00
1854.48,-543.00
1855.57,428.00
1856.66,-82.00
1857.75,415.00
1858.84,-365.00
1859.93,143.00
1861.01,33.00
1862.10,-365.00
1863.19,-328.00
1864.28,-231.00
1865.37,-460.00
1866.45,516.00
1867.54,520.00
1868.62,265.00
1869.71,543.00
1870.79,114.00
1871.88,-180.00
1872.96,646.00
1874.05,154.00
1875.13,-77.00
1876.22,-384.00
1877.30,828.00
1878.38,302.00
1879.46,564.00
1880.55,305.00
1881.63,1109.00
1882.71,-30.00
1883.79,1026.00
1884.87,16.00
1885.95,-539.00
1887.03,350.00
1888.11,202.00
1889.19,114.00
1890.27,322.00
1891.35,217.00
1892.42,263.00
1893.50,325.00
1894.58,-215.00
1895.66,943.00
1896.73,534.00
1897.81,-684.00
1898.89,-203.00
1899.96,605.00
1901.04,530.00
1902.11,303.00
1903.19,393.00
1904.26,458.00
1905.33,-123.00
1906.41,-19.00
1907.48,127.00
1908.55,237.00
1909.63,-108.00
1910.70,413.00
1911.77,-4.00
1912.84,472.00
1913.91,310.00
1914.98,145.00
1916.05,363.00
1917.12,-325.00
1918.19,178.00
1919.26,-143.00
1920.33,493.00
1921.40,632.00
1922.47,1350.00
1923.54,512.00
1924.60,-260.00
1925.67,286.00
1926.74,61.00
1927.80,-87.00
1928.87,597.00
1929.94,-288.00
1931.00,74.00
1932.07,85.00
1933.13,1004.00
1934.20,12.00
1935.26,-322.00
1936.33,-620.00
1937.39,347.00
1938.45,22.00
