ENLIGHTEN Version,1.6.8
Measurement ID,20190528-081958-410142-WP-00391
Serial Number,WP-00391
Label,Methanol
Integration Time,1000
Timestamp,2019-05-28 08:19:58.410142
Note,
Temperature,-99
CCD C0,789.0726928710938
CCD C1,0.16069164872169495
CCD C2,5.064120159659069e-06
CCD C3,-4.444800083547307e-09
CCD Offset,0
CCD Gain,1.9
Laser Wavelength,785.0
Laser Enable,False
Laser Power,100.0
Laser Temperature,-99
Pixel Count,2048

Wavenumber,Processed
65.75,433.00
68.33,393.00
70.91,416.00
73.49,414.00
76.07,429.00
78.64,469.00
81.22,446.00
83.79,490.00
86.37,461.00
88.94,545.00
91.51,497.00
94.09,553.00
96.66,588.00
99.23,590.00
101.79,706.00
104.36,617.00
106.93,742.00
109.50,769.00
112.06,705.00
114.63,825.00
117.19,808.00
119.75,877.00
122.31,888.00
124.87,941.00
127.43,993.00
129.99,962.00
132.55,1096.00
135.11,1080.00
137.66,1110.00
140.22,1118.00
142.78,1153.00
145.33,1179.00
147.88,1205.00
150.43,1247.00
152.98,1275.00
155.53,1279.00
158.08,1312.00
160.63,1322.00
163.18,1403.00
165.73,1391.00
168.27,1418.00
170.82,1467.00
173.36,1494.00
175.90,1517.00
178.45,1557.00
180.99,1591.00
183.53,1587.00
186.07,1625.00
188.61,1661.00
191.14,1688.00
193.68,1754.00
196.22,1693.00
198.75,1741.00
201.29,1743.00
203.82,1752.00
206.35,1821.00
208.88,1749.00
211.41,1866.00
213.94,1787.00
216.47,1811.00
219.00,1862.00
221.53,1760.00
224.05,1829.00
226.58,1740.00
229.10,1807.00
231.63,1743.00
234.15,1767.00
236.67,1745.00
239.19,1611.00
241.71,1701.00
244.23,1640.00
246.75,1640.00
249.27,1659.00
251.78,1542.00
254.30,1603.00
256.81,1477.00
259.33,1485.00
261.84,1447.00
264.35,1429.00
266.86,1414.00
269.38,1318.00
271.88,1316.00
274.39,1200.00
276.90,1251.00
279.41,1177.00
281.91,1160.00
284.42,1128.00
286.92,1052.00
289.43,1042.00
291.93,970.00
294.43,976.00
296.93,890.00
299.43,811.00
301.93,855.00
304.43,738.00
306.92,720.00
309.42,680.00
311.91,636.00
314.41,624.00
316.90,541.00
319.39,604.00
321.89,547.00
324.38,505.00
326.87,451.00
329.36,413.00
331.84,421.00
334.33,353.00
336.82,408.00
339.30,310.00
341.79,355.00
344.27,325.00
346.75,295.00
349.24,319.00
351.72,290.00
354.20,315.00
356.68,243.00
359.16,242.00
361.63,268.00
364.11,251.00
366.59,264.00
369.06,239.00
371.53,289.00
374.01,279.00
376.48,247.00
378.95,209.00
381.42,189.00
383.89,209.00
386.36,224.00
388.83,180.00
391.29,245.00
393.76,114.00
396.23,195.00
398.69,196.00
401.15,176.00
403.62,191.00
406.08,133.00
408.54,161.00
411.00,188.00
413.46,222.00
415.91,181.00
418.37,143.00
420.83,217.00
423.28,122.00
425.74,226.00
428.19,180.00
430.64,138.00
433.10,131.00
435.55,158.00
438.00,169.00
440.45,110.00
442.90,183.00
445.34,171.00
447.79,137.00
450.24,190.00
452.68,123.00
455.12,153.00
457.57,212.00
460.01,164.00
462.45,188.00
464.89,161.00
467.33,158.00
469.77,127.00
472.21,201.00
474.64,152.00
477.08,159.00
479.52,160.00
481.95,182.00
484.38,192.00
486.82,176.00
489.25,190.00
491.68,148.00
494.11,169.00
496.54,198.00
498.96,131.00
501.39,172.00
503.82,188.00
506.24,144.00
508.67,188.00
511.09,155.00
513.52,165.00
515.94,129.00
518.36,160.00
520.78,198.00
523.20,178.00
525.62,207.00
528.03,154.00
530.45,174.00
532.87,226.00
535.28,165.00
537.69,218.00
540.11,137.00
542.52,241.00
544.93,226.00
547.34,247.00
549.75,232.00
552.16,182.00
554.57,220.00
556.98,205.00
559.38,239.00
561.79,181.00
564.19,218.00
566.59,232.00
569.00,190.00
571.40,228.00
573.80,266.00
576.20,285.00
578.60,281.00
581.00,266.00
583.39,258.00
585.79,216.00
588.19,278.00
590.58,224.00
592.98,292.00
595.37,229.00
597.76,245.00
600.15,287.00
602.54,220.00
604.93,239.00
607.32,262.00
609.71,305.00
612.09,286.00
614.48,209.00
616.87,325.00
619.25,234.00
621.63,247.00
624.02,291.00
626.40,264.00
628.78,305.00
631.16,218.00
633.54,283.00
635.91,264.00
638.29,283.00
640.67,276.00
643.04,233.00
645.42,348.00
647.79,256.00
650.16,279.00
652.54,291.00
654.91,262.00
657.28,308.00
659.65,258.00
662.02,275.00
664.38,270.00
666.75,277.00
669.12,292.00
671.48,216.00
673.84,289.00
676.21,205.00
678.57,292.00
680.93,275.00
683.29,257.00
685.65,268.00
688.01,230.00
690.37,334.00
692.73,222.00
695.08,262.00
697.44,267.00
699.79,242.00
702.14,281.00
704.50,200.00
706.85,216.00
709.20,216.00
711.55,250.00
713.90,240.00
716.25,163.00
718.60,215.00
720.94,233.00
723.29,237.00
725.63,215.00
727.98,146.00
730.32,224.00
732.66,154.00
735.00,181.00
737.34,224.00
739.68,169.00
742.02,184.00
744.36,185.00
746.70,137.00
749.03,140.00
751.37,177.00
753.70,213.00
756.04,165.00
758.37,245.00
760.70,127.00
763.03,177.00
765.36,131.00
767.69,148.00
770.02,194.00
772.35,149.00
774.67,186.00
777.00,133.00
779.32,177.00
781.65,172.00
783.97,104.00
786.29,171.00
788.61,110.00
790.93,150.00
793.25,125.00
795.57,107.00
797.89,154.00
800.21,125.00
802.52,146.00
804.84,102.00
807.15,102.00
809.47,93.00
811.78,125.00
814.09,74.00
816.40,43.00
818.71,133.00
821.02,72.00
823.33,110.00
825.64,72.00
827.94,53.00
830.25,120.00
832.55,65.00
834.86,110.00
837.16,104.00
839.46,57.00
841.77,53.00
844.07,2.00
846.37,61.00
848.66,21.00
850.96,11.00
853.26,48.00
855.56,50.00
857.85,57.00
860.15,47.00
862.44,88.00
864.73,19.00
867.02,45.00
869.31,55.00
871.60,62.00
873.89,137.00
876.18,20.00
878.47,129.00
880.76,72.00
883.04,51.00
885.33,156.00
887.61,66.00
889.89,148.00
892.18,86.00
894.46,91.00
896.74,177.00
899.02,116.00
901.30,179.00
903.58,81.00
905.85,148.00
908.13,163.00
910.40,127.00
912.68,154.00
914.95,148.00
917.23,228.00
919.50,203.00
921.77,243.00
924.04,221.00
926.31,245.00
928.58,293.00
930.84,240.00
933.11,281.00
935.38,279.00
937.64,315.00
939.91,340.00
942.17,347.00
944.43,418.00
946.69,376.00
948.95,463.00
951.21,446.00
953.47,467.00
955.73,554.00
957.99,527.00
960.25,585.00
962.50,573.00
964.76,630.00
967.01,704.00
969.26,708.00
971.51,807.00
973.77,845.00
976.02,892.00
978.27,996.00
980.51,1100.00
982.76,1206.00
985.01,1270.00
987.26,1475.00
989.50,1632.00
991.75,1782.00
993.99,2026.00
996.23,2244.00
998.47,2839.00
1000.71,3146.00
1002.95,3772.00
1005.19,4562.00
1007.43,5378.00
1009.67,6534.00
1011.91,7643.00
1014.14,9132.00
1016.38,10993.00
1018.61,13084.00
1020.84,15932.00
1023.08,19003.00
1025.31,22415.00
1027.54,25682.00
1029.77,28858.00
1032.00,30901.00
1034.23,32358.00
1036.45,32503.00
1038.68,31448.00
1040.91,28866.00
1043.13,25162.00
1045.35,20960.00
1047.58,16888.00
1049.80,13213.00
1052.02,10446.00
1054.24,8251.00
1056.46,6769.00
1058.68,5644.00
1060.90,4870.00
1063.11,4283.00
1065.33,3883.00
1067.55,3672.00
1069.76,3364.00
1071.97,3231.00
1074.19,3142.00
1076.40,2931.00
1078.61,3028.00
1080.82,2988.00
1083.03,2964.00
1085.24,3073.00
1087.44,3056.00
1089.65,3146.00
1091.86,3152.00
1094.06,3404.00
1096.27,3452.00
1098.47,3622.00
1100.67,3777.00
1102.87,3886.00
1105.07,4044.00
1107.27,4112.00
1109.47,4205.00
1111.67,4142.00
1113.87,4194.00
1116.07,4106.00
1118.26,3965.00
1120.46,3848.00
1122.65,3594.00
1124.84,3476.00
1127.04,3267.00
1129.23,3070.00
1131.42,2974.00
1133.61,2758.00
1135.80,2634.00
1137.98,2557.00
1140.17,2460.00
1142.36,2349.00
1144.54,2331.00
1146.73,2455.00
1148.91,2384.00
1151.09,2411.00
1153.28,2506.00
1155.46,2455.00
1157.64,2476.00
1159.82,2411.00
1162.00,2437.00
1164.17,2246.00
1166.35,2147.00
1168.53,1975.00
1170.70,1813.00
1172.88,1696.00
1175.05,1519.00
1177.22,1475.00
1179.40,1292.00
1181.57,1255.00
1183.74,1188.00
1185.91,1082.00
1188.07,1109.00
1190.24,999.00
1192.41,915.00
1194.57,936.00
1196.74,769.00
1198.90,776.00
1201.07,710.00
1203.23,674.00
1205.39,651.00
1207.55,638.00
1209.71,602.00
1211.87,575.00
1214.03,623.00
1216.19,552.00
1218.34,482.00
1220.50,503.00
1222.66,450.00
1224.81,460.00
1226.96,370.00
1229.11,486.00
1231.27,374.00
1233.42,385.00
1235.57,398.00
1237.72,323.00
1239.86,378.00
1242.01,302.00
1244.16,359.00
1246.30,330.00
1248.45,334.00
1250.59,327.00
1252.74,277.00
1254.88,346.00
1257.02,290.00
1259.16,317.00
1261.30,342.00
1263.44,309.00
1265.58,331.00
1267.71,275.00
1269.85,309.00
1271.99,288.00
1274.12,296.00
1276.25,348.00
1278.39,317.00
1280.52,365.00
1282.65,298.00
1284.78,304.00
1286.91,333.00
1289.04,333.00
1291.17,285.00
1293.30,305.00
1295.42,381.00
1297.55,332.00
1299.67,403.00
1301.80,340.00
1303.92,372.00
1306.04,410.00
1308.16,393.00
1310.28,404.00
1312.40,381.00
1314.52,395.00
1316.64,475.00
1318.76,464.00
1320.87,541.00
1322.99,503.00
1325.10,577.00
1327.22,615.00
1329.33,537.00
1331.44,677.00
1333.55,635.00
1335.66,658.00
1337.77,713.00
1339.88,737.00
1341.99,899.00
1344.10,799.00
1346.20,932.00
1348.31,923.00
1350.41,932.00
1352.52,1062.00
1354.62,962.00
1356.72,1116.00
1358.82,1092.00
1360.92,1160.00
1363.02,1257.00
1365.12,1277.00
1367.22,1365.00
1369.31,1367.00
1371.41,1534.00
1373.51,1504.00
1375.60,1590.00
1377.69,1646.00
1379.79,1724.00
1381.88,1783.00
1383.97,1781.00
1386.06,1934.00
1388.15,1914.00
1390.24,2033.00
1392.33,2185.00
1394.41,2135.00
1396.50,2310.00
1398.59,2310.00
1400.67,2318.00
1402.75,2482.00
1404.84,2491.00
1406.92,2656.00
1409.00,2628.00
1411.08,2819.00
1413.16,2821.00
1415.24,2901.00
1417.32,2920.00
1419.39,2986.00
1421.47,3151.00
1423.54,3200.00
1425.62,3385.00
1427.69,3628.00
1429.77,3829.00
1431.84,4077.00
1433.91,4372.00
1435.98,4784.00
1438.05,5268.00
1440.12,5959.00
1442.19,6935.00
1444.25,8072.00
1446.32,9331.00
1448.38,10573.00
1450.45,11457.00
1452.51,11928.00
1454.58,11844.00
1456.64,11630.00
1458.70,11390.00
1460.76,11290.00
1462.82,11172.00
1464.88,10990.00
1466.94,10870.00
1468.99,10716.00
1471.05,10470.00
1473.10,10244.00
1475.16,9868.00
1477.21,9528.00
1479.27,9217.00
1481.32,8875.00
1483.37,8378.00
1485.42,7935.00
1487.47,7351.00
1489.52,6927.00
1491.57,6576.00
1493.61,6118.00
1495.66,5896.00
1497.71,5452.00
1499.75,5238.00
1501.79,4920.00
1503.84,4550.00
1505.88,4512.00
1507.92,4262.00
1509.96,4200.00
1512.00,3957.00
1514.04,3833.00
1516.08,3632.00
1518.12,3597.00
1520.15,3544.00
1522.19,3315.00
1524.22,3341.00
1526.26,3202.00
1528.29,3169.00
1530.32,3126.00
1532.35,2971.00
1534.38,2912.00
1536.41,2910.00
1538.44,2921.00
1540.47,2833.00
1542.50,2691.00
1544.53,2707.00
1546.55,2618.00
1548.58,2614.00
1550.60,2534.00
1552.62,2512.00
1554.65,2477.00
1556.67,2327.00
1558.69,2335.00
1560.71,2316.00
1562.73,2284.00
1564.75,2092.00
1566.76,2085.00
1568.78,1985.00
1570.80,1982.00
1572.81,1967.00
1574.83,1822.00
1576.84,1735.00
1578.85,1663.00
1580.86,1606.00
1582.88,1585.00
1584.89,1488.00
1586.89,1495.00
1588.90,1418.00
1590.91,1359.00
1592.92,1312.00
1594.92,1150.00
1596.93,1248.00
1598.93,1080.00
1600.94,1096.00
1602.94,1063.00
1604.94,1018.00
1606.94,870.00
1608.94,872.00
1610.94,843.00
1612.94,807.00
1614.94,745.00
1616.94,720.00
1618.93,619.00
1620.93,656.00
1622.92,601.00
1624.92,568.00
1626.91,547.00
1628.90,477.00
1630.89,520.00
1632.89,398.00
1634.88,439.00
1636.86,412.00
1638.85,325.00
1640.84,330.00
1642.83,300.00
1644.81,357.00
1646.80,218.00
1648.78,272.00
1650.76,203.00
1652.75,129.00
1654.73,191.00
1656.71,141.00
1658.69,129.00
1660.67,118.00
1662.65,84.00
1664.62,46.00
1666.60,31.00
1668.58,79.00
1670.55,102.00
1672.53,84.00
1674.50,2.00
1676.47,-23.00
1678.45,4.00
1680.42,0.00
1682.39,20.00
1684.36,-70.00
1686.32,-55.00
1688.29,-57.00
1690.26,-69.00
1692.23,-96.00
1694.19,-114.00
1696.16,-129.00
1698.12,-123.00
1700.08,-84.00
1702.05,-110.00
1704.01,-154.00
1705.97,-115.00
1707.93,-133.00
1709.89,-128.00
1711.84,-157.00
1713.80,-207.00
1715.76,-161.00
1717.71,-228.00
1719.67,-125.00
1721.62,-137.00
1723.58,-160.00
1725.53,-103.00
1727.48,-209.00
1729.43,-145.00
1731.38,-165.00
1733.33,-177.00
1735.28,-186.00
1737.23,-191.00
1739.17,-214.00
1741.12,-226.00
1743.06,-192.00
1745.01,-152.00
1746.95,-220.00
1748.90,-207.00
1750.84,-237.00
1752.78,-217.00
1754.72,-269.00
1756.66,-171.00
1758.60,-244.00
1760.54,-222.00
1762.47,-245.00
1764.41,-238.00
1766.35,-181.00
1768.28,-228.00
1770.21,-275.00
1772.15,-188.00
1774.08,-234.00
1776.01,-202.00
1777.94,-234.00
1779.87,-163.00
1781.80,-222.00
1783.73,-220.00
1785.66,-182.00
1787.58,-232.00
1789.51,-252.00
1791.44,-224.00
1793.36,-273.00
1795.28,-253.00
1797.21,-203.00
1799.13,-226.00
1801.05,-264.00
1802.97,-247.00
1804.89,-192.00
1806.81,-214.00
1808.73,-241.00
1810.64,-283.00
1812.56,-222.00
1814.48,-253.00
1816.39,-233.00
1818.30,-237.00
1820.22,-287.00
1822.13,-163.00
1824.04,-233.00
1825.95,-244.00
1827.86,-235.00
1829.77,-258.00
1831.68,-178.00
1833.59,-230.00
1835.49,-211.00
1837.40,-277.00
1839.31,-233.00
1841.21,-262.00
1843.11,-239.00
1845.02,-207.00
1846.92,-212.00
1848.82,-209.00
1850.72,-260.00
1852.62,-250.00
1854.52,-189.00
1856.42,-291.00
1858.31,-186.00
1860.21,-279.00
1862.11,-288.00
1864.00,-235.00
1865.89,-307.00
1867.79,-232.00
1869.68,-274.00
1871.57,-215.00
1873.46,-237.00
1875.35,-245.00
1877.24,-201.00
1879.13,-262.00
1881.02,-211.00
1882.91,-251.00
1884.79,-200.00
1886.68,-235.00
1888.56,-241.00
1890.45,-195.00
1892.33,-270.00
1894.21,-260.00
1896.09,-230.00
1897.97,-269.00
1899.85,-248.00
1901.73,-254.00
1903.61,-241.00
1905.49,-228.00
1907.36,-226.00
1909.24,-241.00
1911.11,-249.00
1912.99,-250.00
1914.86,-279.00
1916.74,-232.00
1918.61,-222.00
1920.48,-235.00
1922.35,-211.00
1924.22,-222.00
1926.09,-186.00
1927.95,-227.00
1929.82,-192.00
1931.69,-209.00
1933.55,-217.00
1935.42,-186.00
1937.28,-252.00
1939.15,-183.00
1941.01,-224.00
1942.87,-176.00
1944.73,-203.00
1946.59,-200.00
1948.45,-163.00
1950.31,-246.00
1952.17,-245.00
1954.02,-241.00
1955.88,-209.00
1957.73,-188.00
1959.59,-283.00
1961.44,-212.00
1963.30,-223.00
1965.15,-218.00
1967.00,-212.00
1968.85,-219.00
1970.70,-133.00
1972.55,-238.00
1974.40,-169.00
1976.25,-239.00
1978.09,-246.00
1979.94,-224.00
1981.78,-203.00
1983.63,-199.00
1985.47,-219.00
1987.31,-181.00
1989.16,-181.00
1991.00,-213.00
1992.84,-180.00
1994.68,-226.00
1996.52,-190.00
1998.35,-169.00
2000.19,-190.00
2002.03,-150.00
2003.86,-167.00
2005.70,-103.00
2007.53,-167.00
2009.37,-139.00
2011.20,-167.00
2013.03,-175.00
2014.86,-129.00
2016.69,-158.00
2018.52,-159.00
2020.35,-171.00
2022.18,-140.00
2024.01,-91.00
2025.83,-111.00
2027.66,-121.00
2029.48,-128.00
2031.31,-98.00
2033.13,-84.00
2034.95,-112.00
2036.77,-110.00
2038.59,-131.00
2040.42,-49.00
2042.23,-72.00
2044.05,-99.00
2045.87,-101.00
2047.69,-76.00
2049.50,-59.00
2051.32,-84.00
2053.13,-70.00
2054.95,-95.00
2056.76,-82.00
2058.57,-50.00
2060.39,-84.00
2062.20,-110.00
2064.01,-103.00
2065.82,-97.00
2067.62,-103.00
2069.43,-119.00
2071.24,-70.00
2073.05,-108.00
2074.85,-97.00
2076.66,-102.00
2078.46,-116.00
2080.26,-112.00
2082.06,-137.00
2083.87,-111.00
2085.67,-114.00
2087.47,-103.00
2089.27,-124.00
2091.06,-139.00
2092.86,-92.00
2094.66,-116.00
2096.45,-110.00
2098.25,-120.00
2100.04,-95.00
2101.84,-99.00
2103.63,-141.00
2105.42,-76.00
2107.22,-141.00
2109.01,-93.00
2110.80,-103.00
2112.59,-90.00
2114.37,-91.00
2116.16,-84.00
2117.95,-112.00
2119.73,-137.00
2121.52,-120.00
2123.30,-79.00
2125.09,-121.00
2126.87,-83.00
2128.65,-127.00
2130.43,-58.00
2132.22,-107.00
2134.00,-101.00
2135.77,-64.00
2137.55,-121.00
2139.33,-59.00
2141.11,-123.00
2142.88,-64.00
2144.66,-61.00
2146.43,-108.00
2148.21,-64.00
2149.98,-93.00
2151.75,-63.00
2153.52,-76.00
2155.29,-65.00
2157.06,-74.00
2158.83,-125.00
2160.60,-40.00
2162.37,-82.00
2164.14,-61.00
2165.90,-55.00
2167.67,-112.00
2169.43,-18.00
2171.20,-114.00
2172.96,-68.00
2174.72,-73.00
2176.48,-38.00
2178.24,-23.00
2180.00,-100.00
2181.76,-16.00
2183.52,-74.00
2185.28,-33.00
2187.04,-40.00
2188.79,-53.00
2190.55,-44.00
2192.30,-76.00
2194.06,-19.00
2195.81,-46.00
2197.56,-29.00
2199.31,-13.00
2201.06,-45.00
2202.81,-42.00
2204.56,8.00
2206.31,-17.00
2208.06,-14.00
2209.81,-25.00
2211.55,8.00
2213.30,-17.00
2215.04,23.00
2216.79,-5.00
2218.53,0.00
2220.27,41.00
2222.01,-23.00
2223.76,9.00
2225.50,-23.00
2227.23,58.00
2228.97,4.00
2230.71,-40.00
2232.45,31.00
2234.18,4.00
2235.92,4.00
2237.66,-6.00
2239.39,30.00
2241.12,29.00
2242.86,-17.00
2244.59,57.00
2246.32,11.00
2248.05,22.00
2249.78,9.00
2251.51,-5.00
2253.23,34.00
2254.96,-7.00
2256.69,30.00
2258.41,-16.00
2260.14,21.00
2261.86,23.00
2263.59,-38.00
2265.31,22.00
2267.03,28.00
2268.75,5.00
2270.47,-17.00
2272.19,6.00
2273.91,40.00
2275.63,-24.00
2277.35,4.00
2279.06,-6.00
2280.78,40.00
2282.50,40.00
2284.21,34.00
2285.92,38.00
2287.64,20.00
2289.35,34.00
2291.06,17.00
2292.77,8.00
2294.48,51.00
2296.19,32.00
2297.90,46.00
2299.61,49.00
2301.31,60.00
2303.02,49.00
2304.72,42.00
2306.43,57.00
2308.13,67.00
2309.84,81.00
2311.54,51.00
2313.24,40.00
2314.94,32.00
2316.64,8.00
2318.34,28.00
2320.04,-2.00
2321.74,40.00
2323.43,-6.00
2325.13,-49.00
2326.83,-11.00
2328.52,-62.00
2330.21,-27.00
2331.91,-44.00
2333.60,-28.00
2335.29,-40.00
2336.98,-48.00
2338.67,-28.00
2340.36,-38.00
2342.05,-43.00
2343.74,-11.00
2345.43,-19.00
2347.11,-34.00
2348.80,-68.00
2350.49,-47.00
2352.17,-43.00
2353.85,-33.00
2355.54,-32.00
2357.22,-53.00
2358.90,-36.00
2360.58,-55.00
2362.26,-25.00
2363.94,-30.00
2365.62,-36.00
2367.30,-17.00
2368.97,-63.00
2370.65,2.00
2372.32,-53.00
2374.00,-36.00
2375.67,-47.00
2377.35,-46.00
2379.02,-44.00
2380.69,-12.00
2382.36,-36.00
2384.03,-13.00
2385.70,-22.00
2387.37,-15.00
2389.04,-11.00
2390.70,-4.00
2392.37,-48.00
2394.04,-48.00
2395.70,-3.00
2397.37,-7.00
2399.03,15.00
2400.69,-38.00
2402.35,3.00
2404.02,-31.00
2405.68,-11.00
2407.34,-3.00
2409.00,-2.00
2410.65,25.00
2412.31,11.00
2413.97,-9.00
2415.62,4.00
2417.28,-13.00
2418.93,19.00
2420.59,4.00
2422.24,6.00
2423.89,11.00
2425.55,16.00
2427.20,45.00
2428.85,-35.00
2430.50,53.00
2432.14,36.00
2433.79,36.00
2435.44,21.00
2437.09,33.00
2438.73,46.00
2440.38,32.00
2442.02,42.00
2443.66,36.00
2445.31,66.00
2446.95,41.00
2448.59,29.00
2450.23,59.00
2451.87,49.00
2453.51,91.00
2455.15,72.00
2456.79,88.00
2458.42,125.00
2460.06,82.00
2461.70,91.00
2463.33,83.00
2464.96,139.00
2466.60,118.00
2468.23,89.00
2469.86,122.00
2471.49,133.00
2473.12,144.00
2474.75,124.00
2476.38,116.00
2478.01,180.00
2479.64,97.00
2481.26,145.00
2482.89,150.00
2484.51,142.00
2486.14,153.00
2487.76,129.00
2489.39,143.00
2491.01,139.00
2492.63,161.00
2494.25,148.00
2495.87,169.00
2497.49,188.00
2499.11,120.00
2500.73,196.00
2502.34,190.00
2503.96,190.00
2505.57,167.00
2507.19,157.00
2508.80,191.00
2510.42,191.00
2512.03,203.00
2513.64,194.00
2515.25,215.00
2516.86,215.00
2518.47,196.00
2520.08,237.00
2521.69,245.00
2523.30,230.00
2524.91,228.00
2526.51,235.00
2528.12,273.00
2529.72,262.00
2531.33,294.00
2532.93,279.00
2534.53,249.00
2536.13,274.00
2537.73,296.00
2539.33,321.00
2540.93,298.00
2542.53,329.00
2544.13,290.00
2545.73,319.00
2547.32,325.00
2548.92,344.00
2550.52,357.00
2552.11,338.00
2553.70,368.00
2555.30,345.00
2556.89,366.00
2558.48,388.00
2560.07,364.00
2561.66,378.00
2563.25,370.00
2564.84,414.00
2566.43,372.00
2568.02,370.00
2569.60,347.00
2571.19,407.00
2572.77,393.00
2574.36,342.00
2575.94,383.00
2577.52,378.00
2579.11,366.00
2580.69,395.00
2582.27,361.00
2583.85,371.00
