ENLIGHTEN Version,1.6.8
Measurement ID,20190528-123152-521293-WP-00193
Serial Number,WP-00193
Label,Methanol
Integration Time,200
Timestamp,2019-05-28 12:31:52.521293
Note,
Temperature,-99
CCD C0,536.9577026367188
CCD C1,0.11947000026702881
CCD C2,-1.3838999620929826e-05
CCD C3,-3.2027001051204707e-09
CCD Offset,0
CCD Gain,1.9
Laser Wavelength,532.0
Laser Enable,False
Laser Power,100.0
Laser Temperature,-99
Pixel Count,1024

Wavenumber,Processed
173.55,-9.00
177.69,19.00
181.83,0.00
185.97,-6.00
190.10,-6.00
194.23,-6.00
198.36,10.00
202.49,-5.00
206.61,4.00
210.73,-17.00
214.85,17.00
218.96,8.00
223.07,4.00
227.18,-3.00
231.29,2.00
235.39,2.00
239.49,0.00
243.59,-4.00
247.68,-7.00
251.78,4.00
255.87,8.00
259.95,-12.00
264.04,3.00
268.12,42.00
272.19,6.00
276.27,26.00
280.34,31.00
284.41,40.00
288.48,42.00
292.54,86.00
296.61,57.00
300.67,85.00
304.72,128.00
308.78,175.00
312.83,203.00
316.87,239.00
320.92,324.00
324.96,363.00
329.00,488.00
333.04,535.00
337.07,580.00
341.10,624.00
345.13,734.00
349.16,759.00
353.18,809.00
357.20,847.00
361.22,881.00
365.24,849.00
369.25,886.00
373.26,898.00
377.27,900.00
381.27,913.00
385.27,911.00
389.27,909.00
393.27,870.00
397.26,909.00
401.25,945.00
405.24,896.00
409.22,902.00
413.21,913.00
417.19,999.00
421.16,955.00
425.14,953.00
429.11,977.00
433.08,987.00
437.05,979.00
441.01,1010.00
444.97,1004.00
448.93,1001.00
452.89,1041.00
456.84,985.00
460.79,1039.00
464.74,1005.00
468.68,1044.00
472.62,1088.00
476.56,1064.00
480.50,1091.00
484.44,1060.00
488.37,1062.00
492.30,1130.00
496.22,1092.00
500.15,1109.00
504.07,1130.00
507.99,1164.00
511.90,1164.00
515.81,1185.00
519.72,1201.00
523.63,1192.00
527.54,1214.00
531.44,1214.00
535.34,1193.00
539.24,1200.00
543.13,1269.00
547.02,1244.00
550.91,1212.00
554.80,1193.00
558.68,1225.00
562.56,1261.00
566.44,1260.00
570.32,1279.00
574.19,1283.00
578.06,1303.00
581.93,1282.00
585.80,1301.00
589.66,1294.00
593.52,1307.00
597.38,1369.00
601.23,1366.00
605.09,1367.00
608.94,1351.00
612.78,1404.00
616.63,1419.00
620.47,1400.00
624.31,1384.00
628.15,1408.00
631.98,1452.00
635.81,1417.00
639.64,1406.00
643.47,1457.00
647.29,1461.00
651.11,1495.00
654.93,1486.00
658.75,1487.00
662.56,1473.00
666.37,1541.00
670.18,1505.00
673.99,1489.00
677.79,1539.00
681.59,1541.00
685.39,1554.00
689.18,1570.00
692.97,1566.00
696.77,1499.00
700.55,1579.00
704.34,1575.00
708.12,1545.00
711.90,1579.00
715.68,1602.00
719.45,1558.00
723.22,1577.00
726.99,1558.00
730.76,1586.00
734.53,1606.00
738.29,1573.00
742.05,1590.00
745.80,1543.00
749.56,1596.00
753.31,1636.00
757.06,1604.00
760.80,1587.00
764.55,1585.00
768.29,1629.00
772.03,1636.00
775.77,1615.00
779.50,1615.00
783.23,1643.00
786.96,1649.00
790.69,1684.00
794.41,1702.00
798.13,1676.00
801.85,1671.00
805.57,1697.00
809.28,1719.00
812.99,1700.00
816.70,1705.00
820.40,1739.00
824.11,1746.00
827.81,1746.00
831.51,1699.00
835.20,1701.00
838.90,1695.00
842.59,1723.00
846.28,1706.00
849.96,1741.00
853.65,1731.00
857.33,1735.00
861.00,1723.00
864.68,1697.00
868.35,1771.00
872.02,1775.00
875.69,1781.00
879.36,1763.00
883.02,1809.00
886.68,1801.00
890.34,1754.00
894.00,1815.00
897.65,1840.00
901.30,1814.00
904.95,1885.00
908.59,1830.00
912.24,1824.00
915.88,1798.00
919.52,1872.00
923.15,1837.00
926.79,1847.00
930.42,1906.00
934.05,1917.00
937.67,1933.00
941.30,1941.00
944.92,1939.00
948.54,1929.00
952.15,1950.00
955.77,1980.00
959.38,1997.00
962.99,2056.00
966.59,2056.00
970.20,2134.00
973.80,2168.00
977.40,2199.00
980.99,2277.00
984.59,2357.00
988.18,2440.00
991.77,2578.00
995.35,2722.00
998.94,2946.00
1002.52,3336.00
1006.10,3734.00
1009.67,4294.00
1013.25,5106.00
1016.82,6125.00
1020.39,7436.00
1023.96,8951.00
1027.52,10402.00
1031.08,11522.00
1034.64,12348.00
1038.20,12266.00
1041.76,11273.00
1045.31,9698.00
1048.86,7839.00
1052.41,6209.00
1055.95,4922.00
1059.49,4117.00
1063.03,3590.00
1066.57,3398.00
1070.11,3224.00
1073.64,3103.00
1077.17,3082.00
1080.70,3019.00
1084.22,3114.00
1087.75,3094.00
1091.27,3148.00
1094.79,3175.00
1098.30,3295.00
1101.82,3291.00
1105.33,3357.00
1108.84,3468.00
1112.34,3411.00
1115.85,3514.00
1119.35,3371.00
1122.85,3251.00
1126.35,3291.00
1129.84,3131.00
1133.33,3078.00
1136.82,3023.00
1140.31,2920.00
1143.79,2893.00
1147.28,2886.00
1150.76,2901.00
1154.23,2908.00
1157.71,2926.00
1161.18,2922.00
1164.65,2865.00
1168.12,2861.00
1171.59,2768.00
1175.05,2690.00
1178.51,2600.00
1181.97,2593.00
1185.43,2507.00
1188.88,2480.00
1192.33,2443.00
1195.78,2444.00
1199.23,2449.00
1202.67,2382.00
1206.11,2372.00
1209.55,2315.00
1212.99,2370.00
1216.43,2332.00
1219.86,2271.00
1223.29,2334.00
1226.72,2332.00
1230.14,2308.00
1233.57,2257.00
1236.99,2235.00
1240.40,2317.00
1243.82,2287.00
1247.23,2329.00
1250.65,2298.00
1254.06,2296.00
1257.46,2296.00
1260.87,2275.00
1264.27,2199.00
1267.67,2327.00
1271.07,2306.00
1274.46,2273.00
1277.85,2332.00
1281.24,2323.00
1284.63,2325.00
1288.02,2390.00
1291.40,2324.00
1294.78,2382.00
1298.16,2353.00
1301.54,2423.00
1304.91,2380.00
1308.28,2365.00
1311.65,2414.00
1315.02,2448.00
1318.38,2479.00
1321.75,2519.00
1325.11,2516.00
1328.46,2507.00
1331.82,2543.00
1335.17,2586.00
1338.52,2542.00
1341.87,2557.00
1345.22,2637.00
1348.56,2638.00
1351.90,2671.00
1355.24,2732.00
1358.58,2712.00
1361.92,2781.00
1365.25,2835.00
1368.58,2792.00
1371.91,2833.00
1375.23,2949.00
1378.55,2986.00
1381.88,3000.00
1385.19,3059.00
1388.51,3137.00
1391.82,3192.00
1395.14,3211.00
1398.45,3289.00
1401.75,3314.00
1405.06,3394.00
1408.36,3519.00
1411.66,3508.00
1414.96,3483.00
1418.25,3555.00
1421.55,3657.00
1424.84,3746.00
1428.13,3864.00
1431.41,3976.00
1434.70,4177.00
1437.98,4613.00
1441.26,4973.00
1444.54,5637.00
1447.81,6187.00
1451.09,6791.00
1454.36,7138.00
1457.63,7278.00
1460.89,7282.00
1464.16,7134.00
1467.42,7066.00
1470.68,6928.00
1473.93,6837.00
1477.19,6639.00
1480.44,6288.00
1483.69,6083.00
1486.94,5694.00
1490.19,5456.00
1493.43,5205.00
1496.67,5001.00
1499.91,4783.00
1503.15,4600.00
1506.38,4335.00
1509.61,4299.00
1512.84,4176.00
1516.07,4096.00
1519.30,3999.00
1522.52,3959.00
1525.74,3824.00
1528.96,3856.00
1532.18,3812.00
1535.39,3756.00
1538.60,3725.00
1541.81,3697.00
1545.02,3676.00
1548.23,3744.00
1551.43,3654.00
1554.63,3624.00
1557.83,3532.00
1561.03,3513.00
1564.22,3480.00
1567.41,3453.00
1570.60,3390.00
1573.79,3373.00
1576.98,3306.00
1580.16,3253.00
1583.34,3274.00
1586.52,3186.00
1589.70,3201.00
1592.87,3065.00
1596.04,2995.00
1599.21,2989.00
1602.38,2962.00
1605.55,2922.00
1608.71,2893.00
1611.87,2870.00
1615.03,2847.00
1618.19,2751.00
1621.34,2798.00
1624.50,2713.00
1627.65,2678.00
1630.79,2680.00
1633.94,2686.00
1637.08,2722.00
1640.22,2672.00
1643.36,2642.00
1646.50,2698.00
1649.64,2577.00
1652.77,2610.00
1655.90,2627.00
1659.03,2567.00
1662.15,2591.00
1665.28,2587.00
1668.40,2581.00
1671.52,2537.00
1674.64,2588.00
1677.75,2473.00
1680.86,2566.00
1683.97,2578.00
1687.08,2540.00
1690.19,2483.00
1693.29,2520.00
1696.40,2461.00
1699.50,2503.00
1702.59,2525.00
1705.69,2435.00
1708.78,2444.00
1711.87,2485.00
1714.96,2465.00
1718.05,2420.00
1721.13,2483.00
1724.22,2456.00
1727.30,2380.00
1730.38,2511.00
1733.45,2468.00
1736.53,2469.00
1739.60,2427.00
1742.67,2473.00
1745.73,2435.00
1748.80,2416.00
1751.86,2443.00
1754.92,2487.00
1757.98,2439.00
1761.04,2484.00
1764.09,2462.00
1767.15,2416.00
1770.20,2440.00
1773.25,2467.00
1776.29,2471.00
1779.34,2457.00
1782.38,2478.00
1785.42,2445.00
1788.45,2488.00
1791.49,2397.00
1794.52,2437.00
1797.55,2427.00
1800.58,2465.00
1803.61,2376.00
1806.63,2462.00
1809.66,2515.00
1812.68,2424.00
1815.70,2442.00
1818.71,2473.00
1821.73,2401.00
1824.74,2423.00
1827.75,2490.00
1830.75,2411.00
1833.76,2416.00
1836.76,2399.00
1839.77,2439.00
1842.76,2446.00
1845.76,2472.00
1848.76,2490.00
1851.75,2422.00
1854.74,2399.00
1857.73,2509.00
1860.72,2408.00
1863.70,2431.00
1866.68,2412.00
1869.66,2414.00
1872.64,2382.00
1875.62,2407.00
1878.59,2371.00
1881.56,2380.00
1884.53,2395.00
1887.50,2416.00
1890.46,2354.00
1893.43,2368.00
1896.39,2446.00
1899.35,2353.00
1902.31,2350.00
1905.26,2385.00
1908.21,2323.00
1911.16,2401.00
1914.11,2393.00
1917.06,2372.00
1920.00,2347.00
1922.95,2424.00
1925.89,2412.00
1928.82,2372.00
1931.76,2445.00
1934.70,2400.00
1937.63,2405.00
1940.56,2414.00
1943.48,2426.00
1946.41,2456.00
1949.33,2448.00
1952.26,2418.00
1955.18,2428.00
1958.09,2412.00
1961.01,2464.00
1963.92,2401.00
1966.83,2393.00
1969.74,2438.00
1972.65,2331.00
1975.55,2419.00
1978.46,2490.00
1981.36,2429.00
1984.26,2452.00
1987.15,2418.00
1990.05,2509.00
1992.94,2452.00
1995.83,2369.00
1998.72,2397.00
2001.61,2368.00
2004.49,2352.00
2007.37,2397.00
2010.25,2365.00
2013.13,2376.00
2016.01,2484.00
2018.88,2473.00
2021.75,2388.00
2024.63,2467.00
2027.49,2409.00
2030.36,2422.00
2033.22,2414.00
2036.08,2416.00
2038.94,2404.00
2041.80,2467.00
2044.66,2429.00
2047.51,2458.00
2050.36,2517.00
2053.21,2448.00
2056.06,2490.00
2058.91,2357.00
2061.75,2437.00
2064.59,2391.00
2067.43,2421.00
2070.27,2421.00
2073.10,2402.00
2075.94,2391.00
2078.77,2460.00
2081.60,2454.00
2084.43,2456.00
2087.25,2445.00
2090.07,2402.00
2092.89,2442.00
2095.71,2406.00
2098.53,2380.00
2101.35,2386.00
2104.16,2353.00
2106.97,2397.00
2109.78,2336.00
2112.59,2410.00
2115.39,2367.00
2118.19,2391.00
2121.00,2428.00
2123.79,2325.00
2126.59,2386.00
2129.39,2303.00
2132.18,2357.00
2134.97,2428.00
2137.76,2326.00
2140.55,2326.00
2143.33,2339.00
2146.11,2368.00
2148.90,2334.00
2151.67,2388.00
2154.45,2292.00
2157.23,2366.00
2160.00,2374.00
2162.77,2344.00
2165.54,2289.00
2168.31,2372.00
2171.07,2370.00
2173.83,2385.00
2176.59,2363.00
2179.35,2395.00
2182.11,2391.00
2184.87,2443.00
2187.62,2334.00
2190.37,2370.00
2193.12,2392.00
2195.87,2348.00
2198.61,2356.00
2201.35,2376.00
2204.09,2433.00
2206.83,2418.00
2209.57,2416.00
2212.31,2384.00
2215.04,2355.00
2217.77,2414.00
2220.50,2403.00
2223.23,2395.00
2225.95,2366.00
2228.68,2414.00
2231.40,2414.00
2234.12,2326.00
2236.83,2372.00
2239.55,2347.00
2242.26,2367.00
2244.97,2403.00
2247.68,2346.00
2250.39,2423.00
2253.10,2380.00
2255.80,2441.00
2258.50,2351.00
2261.20,2324.00
2263.90,2390.00
2266.59,2399.00
2269.29,2436.00
2271.98,2387.00
2274.67,2449.00
2277.36,2309.00
2280.04,2390.00
2282.73,2366.00
2285.41,2395.00
2288.09,2349.00
2290.77,2439.00
2293.44,2376.00
2296.12,2361.00
2298.79,2388.00
2301.46,2364.00
2304.13,2371.00
2306.80,2395.00
2309.46,2417.00
2312.12,2399.00
2314.78,2410.00
2317.44,2376.00
2320.10,2357.00
2322.75,2341.00
2325.41,2335.00
2328.06,2306.00
2330.71,2338.00
2333.35,2330.00
2336.00,2244.00
2338.64,2310.00
2341.28,2359.00
2343.92,2366.00
2346.56,2265.00
2349.19,2273.00
2351.83,2216.00
2354.46,2291.00
2357.09,2266.00
2359.72,2235.00
2362.34,2264.00
2364.97,2271.00
2367.59,2275.00
2370.21,2269.00
2372.83,2300.00
2375.44,2245.00
2378.06,2266.00
2380.67,2317.00
2383.28,2228.00
2385.89,2220.00
2388.49,2323.00
2391.10,2269.00
2393.70,2237.00
2396.30,2298.00
2398.90,2266.00
2401.50,2237.00
2404.09,2218.00
2406.68,2266.00
2409.28,2243.00
2411.87,2245.00
2414.45,2245.00
2417.04,2277.00
2419.62,2201.00
2422.20,2264.00
2424.78,2285.00
2427.36,2262.00
2429.94,2229.00
2432.51,2279.00
2435.08,2226.00
2437.65,2307.00
2440.22,2310.00
2442.79,2247.00
2445.35,2252.00
2447.92,2245.00
2450.48,2218.00
2453.03,2241.00
2455.59,2186.00
2458.15,2314.00
2460.70,2296.00
2463.25,2311.00
2465.80,2262.00
2468.35,2348.00
2470.89,2359.00
2473.44,2362.00
2475.98,2299.00
2478.52,2319.00
2481.06,2259.00
2483.59,2391.00
2486.13,2374.00
2488.66,2332.00
2491.19,2348.00
2493.72,2262.00
2496.25,2319.00
2498.77,2304.00
2501.29,2290.00
2503.82,2319.00
2506.33,2325.00
2508.85,2279.00
2511.37,2346.00
2513.88,2273.00
2516.39,2298.00
2518.90,2330.00
2521.41,2380.00
2523.92,2336.00
2526.42,2319.00
2528.92,2362.00
2531.42,2355.00
2533.92,2357.00
2536.42,2374.00
2538.91,2374.00
2541.41,2391.00
2543.90,2395.00
2546.39,2308.00
2548.88,2361.00
2551.36,2444.00
2553.84,2384.00
2556.33,2376.00
2558.81,2439.00
2561.28,2392.00
2563.76,2378.00
2566.24,2446.00
2568.71,2410.00
2571.18,2379.00
2573.65,2509.00
2576.11,2488.00
2578.58,2492.00
2581.04,2441.00
2583.50,2458.00
2585.96,2486.00
2588.42,2484.00
2590.88,2513.00
2593.33,2447.00
2595.78,2485.00
2598.23,2528.00
2600.68,2452.00
2603.13,2442.00
2605.58,2473.00
2608.02,2468.00
2610.46,2491.00
2612.90,2461.00
2615.34,2486.00
2617.77,2452.00
2620.21,2437.00
2622.64,2416.00
2625.07,2406.00
2627.50,2382.00
2629.92,2373.00
2632.35,2366.00
2634.77,2388.00
2637.19,2374.00
2639.61,2298.00
2642.03,2365.00
2644.44,2380.00
2646.86,2277.00
2649.27,2302.00
2651.68,2328.00
2654.09,2300.00
2656.49,2279.00
2658.90,2306.00
2661.30,2304.00
2663.70,2250.00
2666.10,2296.00
2668.50,2291.00
2670.89,2234.00
2673.29,2322.00
2675.68,2298.00
2678.07,2245.00
2680.46,2250.00
2682.84,2235.00
2685.23,2243.00
2687.61,2296.00
2689.99,2283.00
2692.37,2266.00
2694.75,2303.00
2697.12,2315.00
2699.50,2255.00
2701.87,2291.00
2704.24,2285.00
2706.61,2317.00
2708.97,2231.00
2711.34,2298.00
2713.70,2313.00
2716.06,2264.00
2718.42,2374.00
2720.78,2326.00
2723.13,2397.00
2725.49,2393.00
2727.84,2430.00
2730.19,2414.00
2732.54,2434.00
2734.88,2502.00
2737.23,2418.00
2739.57,2509.00
2741.91,2515.00
2744.25,2517.00
2746.59,2547.00
2748.93,2625.00
2751.26,2584.00
2753.59,2629.00
2755.92,2677.00
2758.25,2741.00
2760.58,2825.00
2762.90,2829.00
2765.23,2876.00
2767.55,2903.00
2769.87,2968.00
2772.18,3067.00
2774.50,3076.00
2776.81,3225.00
2779.13,3280.00
2781.44,3397.00
2783.75,3439.00
2786.05,3538.00
2788.36,3704.00
2790.66,3822.00
2792.96,4056.00
2795.26,4176.00
2797.56,4368.00
2799.86,4632.00
2802.15,4931.00
2804.45,5322.00
2806.74,5802.00
2809.03,6277.00
2811.32,6957.00
2813.60,7944.00
2815.89,9086.00
2818.17,10651.00
2820.45,12518.00
2822.73,14998.00
2825.00,18018.00
2827.28,21506.00
2829.55,25250.00
2831.82,28877.00
2834.09,31764.00
2836.36,33400.00
2838.63,33138.00
2840.89,31275.00
2843.16,28219.00
2845.42,24803.00
2847.68,21087.00
2849.93,17815.00
2852.19,15196.00
2854.44,13177.00
2856.70,11549.00
2858.95,10312.00
2861.20,9411.00
2863.44,8899.00
2865.69,8334.00
2867.93,7965.00
2870.17,7697.00
2872.41,7520.00
2874.65,7473.00
2876.89,7378.00
2879.12,7364.00
2881.35,7339.00
2883.59,7477.00
2885.82,7632.00
2888.04,7891.00
2890.27,8038.00
2892.49,8340.00
2894.72,8618.00
2896.94,8871.00
2899.16,9316.00
2901.37,9828.00
2903.59,10341.00
2905.80,10959.00
2908.01,11517.00
2910.22,12264.00
2912.43,12849.00
2914.64,13644.00
2916.84,14276.00
2919.05,14871.00
2921.25,15475.00
2923.45,16203.00
2925.65,16992.00
2927.84,17944.00
2930.04,18966.00
2932.23,20212.00
2934.42,21645.00
2936.61,23196.00
2938.80,24763.00
2940.99,25906.00
2943.17,26944.00
2945.35,27341.00
2947.53,26996.00
2949.71,26125.00
2951.89,24957.00
2954.06,23241.00
2956.24,21666.00
2958.41,19705.00
2960.58,18082.00
2962.75,16587.00
2964.92,15274.00
2967.08,14294.00
2969.25,13322.00
2971.41,12675.00
2973.57,12087.00
2975.73,11587.00
2977.88,11256.00
2980.04,10867.00
2982.19,10541.00
2984.34,10338.00
2986.49,10187.00
2988.64,9913.00
2990.79,9683.00
2992.93,9321.00
2995.07,8964.00
2997.21,8660.00
2999.35,8133.00
3001.49,7712.00
3003.63,7393.00
3005.76,7166.00
3007.89,6782.00
3010.03,6552.00
3012.15,6187.00
3014.28,5948.00
3016.41,5781.00
3018.53,5551.00
3020.65,5443.00
3022.77,5211.00
3024.89,5026.00
3027.01,4802.00
3029.13,4641.00
3031.24,4646.00
3033.35,4489.00
3035.46,4465.00
3037.57,4341.00
3039.68,4311.00
3041.78,4213.00
3043.89,4140.00
3045.99,4029.00
3048.09,3894.00
3050.19,3913.00
3052.29,3829.00
3054.38,3744.00
3056.47,3723.00
3058.57,3646.00
3060.66,3620.00
3062.74,3587.00
3064.83,3592.00
3066.92,3535.00
3069.00,3434.00
3071.08,3463.00
3073.16,3428.00
3075.24,3369.00
3077.31,3290.00
3079.39,3316.00
3081.46,3245.00
3083.53,3213.00
3085.60,3228.00
3087.67,3158.00
3089.74,3124.00
3091.80,3067.00
3093.87,3006.00
3095.93,2971.00
3097.99,2961.00
3100.05,2949.00
3102.10,2936.00
3104.16,2939.00
3106.21,2863.00
3108.26,2855.00
3110.31,2865.00
3112.36,2812.00
3114.40,2776.00
3116.45,2854.00
3118.49,2818.00
3120.53,2698.00
3122.57,2760.00
3124.61,2720.00
3126.65,2648.00
3128.68,2665.00
3130.71,2629.00
3132.74,2610.00
3134.77,2642.00
3136.80,2654.00
3138.83,2614.00
3140.85,2566.00
3142.88,2642.00
3144.90,2511.00
3146.92,2585.00
3148.93,2570.00
3150.95,2479.00
3152.96,2494.00
3154.98,2566.00
3156.99,2505.00
3159.00,2477.00
3161.01,2530.00
3163.01,2508.00
3165.02,2479.00
3167.02,2508.00
3169.02,2461.00
3171.02,2498.00
3173.02,2439.00
3175.01,2511.00
3177.01,2475.00
3179.00,2438.00
3180.99,2447.00
3182.98,2446.00
3184.97,2494.00
3186.96,2515.00
3188.94,2471.00
3190.92,2482.00
3192.90,2520.00
3194.88,2488.00
3196.86,2452.00
3198.84,2509.00
3200.81,2496.00
3202.79,2489.00
