ENLIGHTEN Version,1.6.8
Measurement ID,20190528-110723-399052-WP-00357
Serial Number,WP-00357
Label,Sodium Perchlorate
Integration Time,5
Timestamp,2019-05-28 11:07:23.399052
Note,
Temperature,-99
CCD C0,801.1829833984375
CCD C1,0.12474799901247025
CCD C2,-2.2862799596623518e-05
CCD C3,4.907460215974879e-09
CCD Offset,0
CCD Gain,1.9
Laser Wavelength,785.0
Laser Enable,False
Laser Power,100.0
Laser Temperature,-99
Pixel Count,1952

Wavenumber,Processed
257.31,0.00
259.25,0.00
261.19,0.00
263.13,-521.00
265.07,-199.00
267.01,302.00
268.95,-561.00
270.88,-507.00
272.82,-540.00
274.75,508.00
276.68,-670.00
278.61,-187.00
280.54,108.00
282.46,2.00
284.39,-38.00
286.31,269.00
288.24,-582.00
290.16,87.00
292.08,250.00
294.00,106.00
295.92,310.00
297.83,967.00
299.75,-429.00
301.66,110.00
303.58,665.00
305.49,143.00
307.40,-319.00
309.31,-389.00
311.22,65.00
313.12,-530.00
315.03,538.00
316.93,405.00
318.83,-365.00
320.73,66.00
322.63,-410.00
324.53,-562.00
326.43,-242.00
328.33,-294.00
330.22,557.00
332.12,-664.00
334.01,-537.00
335.90,669.00
337.79,93.00
339.68,362.00
341.57,475.00
343.45,186.00
345.34,-41.00
347.22,-332.00
349.10,147.00
350.98,232.00
352.86,818.00
354.74,-485.00
356.62,-360.00
358.50,238.00
360.37,556.00
362.24,312.00
364.12,-318.00
365.99,613.00
367.86,205.00
369.73,15.00
371.59,-360.00
373.46,889.00
375.33,-386.00
377.19,415.00
379.05,662.00
380.91,-183.00
382.77,-170.00
384.63,469.00
386.49,392.00
388.35,-29.00
390.20,30.00
392.06,518.00
393.91,154.00
395.76,-231.00
397.61,-154.00
399.46,590.00
401.31,293.00
403.15,-78.00
405.00,305.00
406.84,-21.00
408.69,-215.00
410.53,71.00
412.37,-39.00
414.21,685.00
416.05,1130.00
417.88,-78.00
419.72,335.00
421.55,214.00
423.39,32.00
425.22,344.00
427.05,169.00
428.88,848.00
430.71,172.00
432.54,1461.00
434.36,471.00
436.19,424.00
438.01,1056.00
439.83,1197.00
441.65,490.00
443.48,2023.00
445.29,2189.00
447.11,2261.00
448.93,3071.00
450.74,2918.00
452.56,4306.00
454.37,5949.00
456.18,6250.00
457.99,9210.00
459.80,9929.00
461.61,10923.00
463.42,11871.00
465.23,11210.00
467.03,9943.00
468.83,8738.00
470.64,7578.00
472.44,7048.00
474.24,5517.00
476.04,4941.00
477.84,3671.00
479.63,3572.00
481.43,2028.00
483.22,2513.00
485.02,2106.00
486.81,2202.00
488.60,1937.00
490.39,1013.00
492.18,881.00
493.96,383.00
495.75,829.00
497.54,879.00
499.32,773.00
501.10,749.00
502.88,355.00
504.67,463.00
506.45,845.00
508.22,239.00
510.00,589.00
511.78,63.00
513.55,1039.00
515.33,442.00
517.10,988.00
518.87,1095.00
520.64,622.00
522.41,-127.00
524.18,904.00
525.94,559.00
527.71,518.00
529.47,568.00
531.24,-81.00
533.00,1078.00
534.76,510.00
536.52,173.00
538.28,1003.00
540.04,963.00
541.80,272.00
543.55,794.00
545.31,315.00
547.06,1016.00
548.81,841.00
550.56,669.00
552.31,391.00
554.06,743.00
555.81,888.00
557.56,-117.00
559.30,744.00
561.05,1035.00
562.79,1501.00
564.53,1294.00
566.28,780.00
568.02,1025.00
569.75,0.00
571.49,740.00
573.23,608.00
574.97,717.00
576.70,475.00
578.43,1352.00
580.17,288.00
581.90,724.00
583.63,-550.00
585.36,291.00
587.09,1102.00
588.81,1106.00
590.54,282.00
592.26,673.00
593.99,937.00
595.71,970.00
597.43,576.00
599.15,889.00
600.87,1084.00
602.59,956.00
604.31,160.00
606.02,919.00
607.74,417.00
609.45,1417.00
611.17,1335.00
612.88,1739.00
614.59,2110.00
616.30,1979.00
618.01,2826.00
619.71,4017.00
621.42,4971.00
623.13,6511.00
624.83,7712.00
626.53,9207.00
628.24,10157.00
629.94,11973.00
631.64,11919.00
633.34,12036.00
635.04,11816.00
636.73,11097.00
638.43,9172.00
640.12,8691.00
641.82,8124.00
643.51,6648.00
645.20,5504.00
646.89,6212.00
648.58,4161.00
650.27,3626.00
651.96,3618.00
653.65,2216.00
655.33,1848.00
657.02,2548.00
658.70,835.00
660.38,1722.00
662.06,1154.00
663.74,1727.00
665.42,518.00
667.10,517.00
668.78,480.00
670.45,167.00
672.13,562.00
673.80,988.00
675.48,-78.00
677.15,684.00
678.82,868.00
680.49,204.00
682.16,476.00
683.83,-176.00
685.49,666.00
687.16,218.00
688.82,211.00
690.49,-27.00
692.15,-351.00
693.81,222.00
695.47,773.00
697.13,360.00
698.79,514.00
700.45,237.00
702.11,328.00
703.76,529.00
705.42,1112.00
707.07,95.00
708.72,979.00
710.37,-53.00
712.02,0.00
713.67,123.00
715.32,891.00
716.97,466.00
718.62,206.00
720.26,148.00
721.91,510.00
723.55,1020.00
725.19,553.00
726.84,150.00
728.48,465.00
730.12,249.00
731.75,-471.00
733.39,-130.00
735.03,266.00
736.66,235.00
738.30,-333.00
739.93,358.00
741.57,618.00
743.20,-287.00
744.83,471.00
746.46,25.00
748.09,378.00
749.71,51.00
751.34,578.00
752.97,125.00
754.59,-606.00
756.22,16.00
757.84,81.00
759.46,541.00
761.08,201.00
762.70,-198.00
764.32,-264.00
765.94,-164.00
767.56,-69.00
769.17,-541.00
770.79,-161.00
772.40,411.00
774.01,243.00
775.63,-287.00
777.24,403.00
778.85,826.00
780.46,-32.00
782.07,-462.00
783.67,153.00
785.28,-42.00
786.88,96.00
788.49,-91.00
790.09,816.00
791.70,-385.00
793.30,176.00
794.90,20.00
796.50,266.00
798.10,509.00
799.69,497.00
801.29,-159.00
802.89,68.00
804.48,285.00
806.08,-28.00
807.67,237.00
809.26,216.00
810.85,211.00
812.44,346.00
814.03,387.00
815.62,380.00
817.21,821.00
818.79,518.00
820.38,348.00
821.96,699.00
823.55,285.00
825.13,289.00
826.71,272.00
828.29,230.00
829.87,410.00
831.45,443.00
833.03,203.00
834.61,473.00
836.18,15.00
837.76,205.00
839.33,81.00
840.91,704.00
842.48,-23.00
844.05,1222.00
845.62,88.00
847.19,-61.00
848.76,750.00
850.33,1082.00
851.90,739.00
853.46,393.00
855.03,122.00
856.59,150.00
858.15,385.00
859.72,-240.00
861.28,381.00
862.84,141.00
864.40,-151.00
865.96,336.00
867.52,99.00
869.07,-418.00
870.63,73.00
872.18,445.00
873.74,349.00
875.29,711.00
876.84,445.00
878.40,51.00
879.95,-377.00
881.50,19.00
883.04,365.00
884.59,5.00
886.14,229.00
887.69,547.00
889.23,148.00
890.78,34.00
892.32,52.00
893.86,435.00
895.40,489.00
896.94,478.00
898.48,933.00
900.02,102.00
901.56,590.00
903.10,608.00
904.63,452.00
906.17,104.00
907.70,470.00
909.24,637.00
910.77,1282.00
912.30,1358.00
913.83,1890.00
915.36,2336.00
916.89,3226.00
918.42,4036.00
919.95,5788.00
921.48,6251.00
923.00,8673.00
924.53,8718.00
926.05,10360.00
927.57,10097.00
929.10,14318.00
930.62,16528.00
932.14,20170.00
933.66,22334.00
935.18,27684.00
936.70,29598.00
938.21,36043.00
939.73,38682.00
941.24,43985.00
942.76,45004.00
944.27,44297.00
945.79,42640.00
947.30,43351.00
948.81,38682.00
950.32,33329.00
951.83,30243.00
953.34,25670.00
954.84,21213.00
956.35,15648.00
957.86,12810.00
959.36,11778.00
960.87,9865.00
962.37,6925.00
963.87,5758.00
965.37,4383.00
966.88,3535.00
968.38,2885.00
969.87,2190.00
971.37,1842.00
972.87,1383.00
974.37,319.00
975.86,994.00
977.36,1272.00
978.85,504.00
980.35,589.00
981.84,360.00
983.33,817.00
984.82,463.00
986.31,489.00
987.80,744.00
989.29,263.00
990.77,337.00
992.26,384.00
993.75,-83.00
995.23,640.00
996.72,683.00
998.20,1411.00
999.68,764.00
1001.16,910.00
1002.64,472.00
1004.12,467.00
1005.60,723.00
1007.08,1022.00
1008.56,430.00
1010.04,61.00
1011.51,41.00
1012.99,-407.00
1014.46,-271.00
1015.93,780.00
1017.41,323.00
1018.88,794.00
1020.35,287.00
1021.82,690.00
1023.29,-249.00
1024.76,356.00
1026.23,219.00
1027.69,604.00
1029.16,297.00
1030.62,732.00
1032.09,849.00
1033.55,728.00
1035.02,-221.00
1036.48,284.00
1037.94,884.00
1039.40,901.00
1040.86,484.00
1042.32,645.00
1043.78,1114.00
1045.23,569.00
1046.69,936.00
1048.15,782.00
1049.60,-168.00
1051.05,107.00
1052.51,-105.00
1053.96,17.00
1055.41,135.00
1056.86,-220.00
1058.31,834.00
1059.76,426.00
1061.21,1128.00
1062.66,18.00
1064.10,170.00
1065.55,963.00
1067.00,716.00
1068.44,93.00
1069.88,790.00
1071.33,1424.00
1072.77,1043.00
1074.21,1425.00
1075.65,1277.00
1077.09,1783.00
1078.53,1893.00
1079.97,2020.00
1081.41,2361.00
1082.84,2379.00
1084.28,1980.00
1085.71,2759.00
1087.15,2385.00
1088.58,2985.00
1090.02,2541.00
1091.45,2718.00
1092.88,2500.00
1094.31,2252.00
1095.74,2955.00
1097.17,2479.00
1098.60,2472.00
1100.02,2287.00
1101.45,2172.00
1102.88,2081.00
1104.30,2518.00
1105.73,2084.00
1107.15,2053.00
1108.57,2184.00
1109.99,2589.00
1111.42,1836.00
1112.84,2566.00
1114.26,1642.00
1115.68,2839.00
1117.09,2802.00
1118.51,2332.00
1119.93,3086.00
1121.34,3372.00
1122.76,2609.00
1124.17,3887.00
1125.59,3386.00
1127.00,3413.00
1128.41,4137.00
1129.82,4085.00
1131.24,3951.00
1132.65,3644.00
1134.05,3896.00
1135.46,2922.00
1136.87,3678.00
1138.28,2863.00
1139.68,2503.00
1141.09,2887.00
1142.50,1959.00
1143.90,1180.00
1145.30,1119.00
1146.71,1562.00
1148.11,1470.00
1149.51,948.00
1150.91,889.00
1152.31,1121.00
1153.71,1729.00
1155.11,1134.00
1156.50,453.00
1157.90,824.00
1159.30,901.00
1160.69,939.00
1162.08,1149.00
1163.48,966.00
1164.87,1394.00
1166.26,509.00
1167.66,476.00
1169.05,1173.00
1170.44,-229.00
1171.83,476.00
1173.21,727.00
1174.60,784.00
1175.99,913.00
1177.38,452.00
1178.76,102.00
1180.15,236.00
1181.53,186.00
1182.92,266.00
1184.30,289.00
1185.68,1254.00
1187.06,832.00
1188.44,610.00
1189.82,505.00
1191.20,878.00
1192.58,796.00
1193.96,1012.00
1195.34,476.00
1196.71,1261.00
1198.09,1001.00
1199.46,1013.00
1200.84,187.00
1202.21,97.00
1203.58,98.00
1204.96,1325.00
1206.33,499.00
1207.70,-585.00
1209.07,54.00
1210.44,955.00
1211.81,733.00
1213.17,1.00
1214.54,260.00
1215.91,633.00
1217.27,41.00
1218.64,158.00
1220.00,90.00
1221.37,691.00
1222.73,383.00
1224.09,1107.00
1225.45,225.00
1226.82,-135.00
1228.18,262.00
1229.54,916.00
1230.89,1240.00
1232.25,386.00
1233.61,17.00
1234.97,1090.00
1236.32,961.00
1237.68,192.00
1239.03,154.00
1240.39,301.00
1241.74,917.00
1243.09,-30.00
1244.45,380.00
1245.80,1058.00
1247.15,1057.00
1248.50,671.00
1249.85,19.00
1251.20,120.00
1252.54,626.00
1253.89,796.00
1255.24,979.00
1256.58,826.00
1257.93,1188.00
1259.27,813.00
1260.62,629.00
1261.96,812.00
1263.30,421.00
1264.64,830.00
1265.98,1154.00
1267.33,755.00
1268.67,-194.00
1270.00,-380.00
1271.34,711.00
1272.68,1195.00
1274.02,508.00
1275.35,195.00
1276.69,277.00
1278.03,1140.00
1279.36,576.00
1280.69,518.00
1282.03,828.00
1283.36,20.00
1284.69,927.00
1286.02,409.00
1287.35,916.00
1288.68,469.00
1290.01,155.00
1291.34,-14.00
1292.67,1068.00
1294.00,234.00
1295.32,163.00
1296.65,1427.00
1297.97,389.00
1299.30,134.00
1300.62,1217.00
1301.94,641.00
1303.27,206.00
1304.59,863.00
1305.91,193.00
1307.23,132.00
1308.55,70.00
1309.87,706.00
1311.19,997.00
1312.51,169.00
1313.82,322.00
1315.14,234.00
1316.46,429.00
1317.77,934.00
1319.09,946.00
1320.40,1164.00
1321.72,550.00
1323.03,785.00
1324.34,-219.00
1325.65,1157.00
1326.96,876.00
1328.27,587.00
1329.58,821.00
1330.89,106.00
1332.20,955.00
1333.51,532.00
1334.82,891.00
1336.12,516.00
1337.43,643.00
1338.73,1061.00
1340.04,864.00
1341.34,826.00
1342.65,111.00
1343.95,282.00
1345.25,94.00
1346.55,917.00
1347.85,1423.00
1349.15,1262.00
1350.45,2.00
1351.75,334.00
1353.05,1105.00
1354.35,1107.00
1355.65,601.00
1356.94,-119.00
1358.24,438.00
1359.53,1003.00
1360.83,585.00
1362.12,724.00
1363.42,622.00
1364.71,1267.00
1366.00,252.00
1367.29,640.00
1368.58,445.00
1369.87,1196.00
1371.16,510.00
1372.45,810.00
1373.74,427.00
1375.03,382.00
1376.32,1106.00
1377.60,329.00
1378.89,1312.00
1380.17,829.00
1381.46,924.00
1382.74,499.00
1384.03,1801.00
1385.31,726.00
1386.59,182.00
1387.87,587.00
1389.15,965.00
1390.43,787.00
1391.71,1178.00
1392.99,1073.00
1394.27,652.00
1395.55,842.00
1396.83,822.00
1398.11,422.00
1399.38,989.00
1400.66,1121.00
1401.93,148.00
1403.21,422.00
1404.48,1272.00
1405.75,397.00
1407.03,983.00
1408.30,1279.00
1409.57,2005.00
1410.84,179.00
1412.11,1288.00
1413.38,572.00
1414.65,375.00
1415.92,620.00
1417.19,780.00
1418.46,1075.00
1419.72,1091.00
1420.99,879.00
1422.25,135.00
1423.52,621.00
1424.78,1058.00
1426.05,1002.00
1427.31,881.00
1428.57,26.00
1429.84,620.00
1431.10,1687.00
1432.36,903.00
1433.62,345.00
1434.88,755.00
1436.14,1206.00
1437.40,1277.00
1438.65,424.00
1439.91,1059.00
1441.17,581.00
1442.43,238.00
1443.68,960.00
1444.94,1074.00
1446.19,365.00
1447.44,1145.00
1448.70,1178.00
1449.95,725.00
1451.20,936.00
1452.46,984.00
1453.71,743.00
1454.96,551.00
1456.21,449.00
1457.46,1229.00
1458.71,404.00
1459.95,473.00
1461.20,935.00
1462.45,600.00
1463.70,544.00
1464.94,1037.00
1466.19,981.00
1467.43,356.00
1468.68,1276.00
1469.92,412.00
1471.16,861.00
1472.41,786.00
1473.65,900.00
1474.89,115.00
1476.13,1495.00
1477.37,530.00
1478.61,218.00
1479.85,864.00
1481.09,606.00
1482.33,497.00
1483.57,1029.00
1484.80,405.00
1486.04,1089.00
1487.28,964.00
1488.51,975.00
1489.75,709.00
1490.98,1101.00
1492.21,93.00
1493.45,864.00
1494.68,185.00
1495.91,790.00
1497.14,273.00
1498.37,1206.00
1499.61,452.00
1500.84,827.00
1502.06,1020.00
1503.29,773.00
1504.52,1388.00
1505.75,1052.00
1506.98,-407.00
1508.20,929.00
1509.43,951.00
1510.66,1370.00
1511.88,540.00
1513.11,-584.00
1514.33,420.00
1515.55,1148.00
1516.78,749.00
1518.00,1174.00
1519.22,659.00
1520.44,507.00
1521.66,1186.00
1522.88,1015.00
1524.10,814.00
1525.32,920.00
1526.54,776.00
1527.76,676.00
1528.98,1229.00
1530.19,1409.00
1531.41,1407.00
1532.63,1256.00
1533.84,461.00
1535.06,405.00
1536.27,1240.00
1537.48,222.00
1538.70,969.00
1539.91,524.00
1541.12,769.00
1542.33,398.00
1543.55,1223.00
1544.76,634.00
1545.97,604.00
1547.18,1105.00
1548.39,842.00
1549.59,1353.00
1550.80,792.00
1552.01,935.00
1553.22,794.00
1554.42,465.00
1555.63,409.00
1556.84,809.00
1558.04,692.00
1559.24,390.00
1560.45,706.00
1561.65,866.00
1562.86,1067.00
1564.06,1026.00
1565.26,501.00
1566.46,935.00
1567.66,19.00
1568.86,509.00
1570.06,680.00
1571.26,995.00
1572.46,444.00
1573.66,243.00
1574.86,966.00
1576.05,1156.00
1577.25,1111.00
1578.45,892.00
1579.64,414.00
1580.84,645.00
1582.03,886.00
1583.23,570.00
1584.42,30.00
1585.61,893.00
1586.81,8.00
1588.00,353.00
1589.19,632.00
1590.38,880.00
1591.57,115.00
1592.76,437.00
1593.95,331.00
1595.14,427.00
1596.33,614.00
1597.52,693.00
1598.71,1090.00
1599.90,333.00
1601.08,942.00
1602.27,219.00
1603.45,1168.00
1604.64,861.00
1605.83,845.00
1607.01,862.00
1608.19,500.00
1609.38,477.00
1610.56,925.00
1611.74,338.00
1612.92,16.00
1614.11,566.00
1615.29,607.00
1616.47,143.00
1617.65,1206.00
1618.83,786.00
1620.01,461.00
1621.18,837.00
1622.36,365.00
1623.54,317.00
1624.72,-112.00
1625.89,80.00
1627.07,563.00
1628.25,180.00
1629.42,1456.00
1630.60,-54.00
1631.77,467.00
1632.94,288.00
1634.12,299.00
1635.29,153.00
1636.46,956.00
1637.63,261.00
1638.80,1045.00
1639.98,-381.00
1641.15,339.00
1642.32,272.00
1643.49,282.00
1644.65,791.00
1645.82,922.00
1646.99,1117.00
1648.16,176.00
1649.33,1210.00
1650.49,470.00
1651.66,262.00
1652.82,270.00
1653.99,535.00
1655.15,-16.00
1656.32,584.00
1657.48,34.00
1658.65,355.00
1659.81,495.00
1660.97,-11.00
1662.13,731.00
1663.29,1079.00
1664.45,371.00
1665.62,501.00
1666.78,-649.00
1667.94,825.00
1669.09,425.00
1670.25,-300.00
1671.41,261.00
1672.57,1099.00
1673.73,139.00
1674.88,5.00
1676.04,30.00
1677.20,451.00
1678.35,227.00
1679.51,521.00
1680.66,545.00
1681.82,343.00
1682.97,1417.00
1684.12,686.00
1685.27,790.00
1686.43,1316.00
1687.58,600.00
1688.73,3.00
1689.88,617.00
1691.03,659.00
1692.18,1486.00
1693.33,-163.00
1694.48,673.00
1695.63,1120.00
1696.78,-40.00
1697.93,855.00
1699.07,367.00
1700.22,905.00
1701.37,598.00
1702.51,825.00
1703.66,71.00
1704.80,303.00
1705.95,462.00
1707.09,1098.00
1708.24,188.00
1709.38,585.00
1710.52,1617.00
1711.67,667.00
1712.81,891.00
1713.95,489.00
1715.09,544.00
1716.23,424.00
1717.37,872.00
1718.51,0.00
1719.65,1081.00
1720.79,1303.00
1721.93,588.00
1723.07,1733.00
1724.20,3.00
1725.34,102.00
1726.48,130.00
1727.62,628.00
1728.75,578.00
1729.89,350.00
1731.02,196.00
1732.16,545.00
1733.29,425.00
1734.43,373.00
1735.56,694.00
1736.69,813.00
1737.82,412.00
1738.96,446.00
1740.09,1.00
1741.22,9.00
1742.35,952.00
1743.48,-120.00
1744.61,-176.00
1745.74,1193.00
1746.87,1036.00
1748.00,949.00
1749.13,560.00
1750.25,272.00
1751.38,151.00
1752.51,736.00
1753.64,176.00
1754.76,728.00
1755.89,349.00
1757.01,647.00
1758.14,246.00
1759.26,984.00
1760.39,729.00
1761.51,1174.00
1762.63,300.00
1763.76,296.00
1764.88,915.00
1766.00,1331.00
1767.12,1181.00
1768.24,236.00
1769.37,480.00
1770.49,296.00
1771.61,385.00
1772.73,604.00
1773.85,1158.00
1774.96,1043.00
1776.08,715.00
1777.20,341.00
1778.32,569.00
1779.44,126.00
1780.55,-105.00
1781.67,210.00
1782.78,135.00
1783.90,150.00
1785.01,951.00
1786.13,-442.00
1787.24,954.00
1788.36,744.00
1789.47,-97.00
1790.58,945.00
1791.70,498.00
1792.81,684.00
1793.92,639.00
1795.03,433.00
1796.14,160.00
1797.26,676.00
1798.37,523.00
1799.48,474.00
1800.58,484.00
1801.69,705.00
1802.80,352.00
1803.91,660.00
1805.02,296.00
1806.13,517.00
1807.23,815.00
1808.34,1151.00
1809.45,551.00
1810.55,1008.00
1811.66,505.00
1812.76,368.00
1813.87,541.00
1814.97,456.00
1816.08,48.00
1817.18,218.00
1818.28,238.00
1819.39,-141.00
1820.49,561.00
1821.59,-93.00
1822.69,363.00
1823.79,312.00
1824.90,-76.00
1826.00,284.00
1827.10,718.00
1828.20,382.00
1829.30,599.00
1830.39,444.00
1831.49,-582.00
1832.59,642.00
1833.69,376.00
1834.79,856.00
1835.88,201.00
1836.98,-285.00
1838.08,401.00
1839.17,592.00
1840.27,354.00
1841.36,146.00
1842.46,56.00
1843.55,190.00
1844.65,242.00
1845.74,-360.00
1846.83,661.00
1847.93,423.00
1849.02,257.00
1850.11,407.00
1851.20,191.00
1852.30,-107.00
1853.39,414.00
1854.48,-195.00
1855.57,269.00
1856.66,791.00
1857.75,7.00
1858.84,-143.00
1859.93,430.00
1861.01,352.00
1862.10,376.00
1863.19,-446.00
1864.28,446.00
1865.37,683.00
1866.45,650.00
1867.54,634.00
1868.62,-153.00
1869.71,-51.00
1870.79,6.00
1871.88,-25.00
1872.96,289.00
1874.05,618.00
1875.13,476.00
1876.22,384.00
1877.30,65.00
1878.38,-253.00
1879.46,183.00
1880.55,490.00
1881.63,-12.00
1882.71,383.00
1883.79,432.00
1884.87,868.00
1885.95,6.00
1887.03,352.00
1888.11,-165.00
1889.19,540.00
1890.27,-130.00
1891.35,484.00
1892.42,258.00
1893.50,525.00
1894.58,154.00
1895.66,-139.00
1896.73,-135.00
1897.81,259.00
1898.89,102.00
1899.96,-102.00
1901.04,-261.00
1902.11,202.00
1903.19,322.00
1904.26,69.00
1905.33,-224.00
1906.41,579.00
1907.48,262.00
1908.55,631.00
1909.63,1179.00
1910.70,-13.00
1911.77,-397.00
1912.84,587.00
1913.91,23.00
1914.98,-330.00
1916.05,133.00
1917.12,319.00
1918.19,-614.00
1919.26,1217.00
1920.33,447.00
1921.40,-109.00
1922.47,147.00
1923.54,216.00
1924.60,1193.00
1925.67,606.00
1926.74,505.00
1927.80,603.00
1928.87,243.00
1929.94,531.00
1931.00,-110.00
1932.07,-97.00
1933.13,550.00
1934.20,-62.00
1935.26,-359.00
1936.33,604.00
1937.39,-614.00
1938.45,483.00
1939.52,20.00
1940.58,1.00
1941.64,31.00
1942.70,-45.00
1943.76,112.00
1944.83,157.00
1945.89,-27.00
1946.95,-543.00
1948.01,1027.00
1949.07,267.00
1950.13,-72.00
1951.19,886.00
1952.25,549.00
1953.30,290.00
1954.36,-136.00
1955.42,279.00
1956.48,592.00
1957.54,239.00
1958.59,-104.00
1959.65,887.00
1960.71,367.00
1961.76,710.00
1962.82,-29.00
1963.87,-258.00
1964.93,-359.00
1965.98,-445.00
1967.04,-125.00
1968.09,-75.00
1969.15,-296.00
1970.20,123.00
1971.25,141.00
