ENLIGHTEN Version,1.6.8
Measurement ID,20190528-102113-261017-SIGD-0003
Serial Number,SIGD-0003
Label,Sucrose
Integration Time,100
Timestamp,2019-05-28 10:21:13.261017
Note,
Temperature,-99
CCD C0,613.8702392578125
CCD C1,0.10380711406469345
CCD C2,-1.9689399778144434e-05
CCD C3,3.600099995892947e-09
CCD Offset,0
CCD Gain,1.9
Laser Wavelength,633.0
Laser Enable,True
Laser Power,100.0
Laser Temperature,-99
Pixel Count,1952

Wavenumber,Processed
-492.30,0.00
-489.55,0.00
-486.79,0.00
-484.04,411.00
-481.30,177.00
-478.55,-191.00
-475.81,327.00
-473.06,-424.00
-470.32,-1026.00
-467.59,-196.00
-464.85,274.00
-462.12,-539.00
-459.38,392.00
-456.65,187.00
-453.93,282.00
-451.20,1.00
-448.48,182.00
-445.75,697.00
-443.03,636.00
-440.31,419.00
-437.60,202.00
-434.88,-191.00
-432.17,177.00
-429.46,357.00
-426.75,571.00
-424.04,-277.00
-421.34,360.00
-418.64,-633.00
-415.93,986.00
-413.24,68.00
-410.54,-17.00
-407.84,-877.00
-405.15,17.00
-402.46,-296.00
-399.77,-207.00
-397.08,-143.00
-394.39,87.00
-391.71,430.00
-389.03,116.00
-386.35,187.00
-383.67,-95.00
-380.99,57.00
-378.32,2.00
-375.65,-159.00
-372.98,150.00
-370.31,163.00
-367.64,44.00
-364.98,-336.00
-362.31,330.00
-359.65,-761.00
-356.99,301.00
-354.33,-429.00
-351.68,-48.00
-349.03,-115.00
-346.37,-79.00
-343.72,180.00
-341.08,-80.00
-338.43,-86.00
-335.78,323.00
-333.14,87.00
-330.50,350.00
-327.86,366.00
-325.23,-203.00
-322.59,177.00
-319.96,-255.00
-317.33,75.00
-314.70,149.00
-312.07,-14.00
-309.44,-33.00
-306.82,148.00
-304.20,634.00
-301.57,-59.00
-298.96,-259.00
-296.34,-382.00
-293.72,271.00
-291.11,-677.00
-288.50,90.00
-285.89,-193.00
-283.28,-260.00
-280.68,-312.00
-278.07,48.00
-275.47,-386.00
-272.87,208.00
-270.27,63.00
-267.68,86.00
-265.08,223.00
-262.49,-33.00
-259.90,280.00
-257.31,-262.00
-254.72,-373.00
-252.13,-17.00
-249.55,-3.00
-246.97,390.00
-244.39,396.00
-241.81,-25.00
-239.23,-493.00
-236.65,636.00
-234.08,5.00
-231.51,-239.00
-228.94,-294.00
-226.37,-297.00
-223.81,-645.00
-221.24,227.00
-218.68,-55.00
-216.12,-102.00
-213.56,-53.00
-211.00,248.00
-208.45,230.00
-205.89,-414.00
-203.34,719.00
-200.79,-17.00
-198.24,220.00
-195.69,-389.00
-193.15,54.00
-190.61,-539.00
-188.06,28.00
-185.52,547.00
-182.99,-334.00
-180.45,218.00
-177.92,122.00
-175.38,-116.00
-172.85,285.00
-170.32,-386.00
-167.79,-364.00
-165.27,-282.00
-162.74,495.00
-160.22,257.00
-157.70,589.00
-155.18,235.00
-152.66,197.00
-150.15,3.00
-147.64,-438.00
-145.12,524.00
-142.61,-37.00
-140.10,-158.00
-137.60,323.00
-135.09,5.00
-132.59,-69.00
-130.09,-137.00
-127.59,-305.00
-125.09,489.00
-122.59,276.00
-120.10,417.00
-117.60,710.00
-115.11,557.00
-112.62,40.00
-110.13,58.00
-107.65,53.00
-105.16,96.00
-102.68,-53.00
-100.20,-163.00
-97.72,209.00
-95.24,392.00
-92.76,79.00
-90.29,-391.00
-87.82,589.00
-85.35,-243.00
-82.88,-183.00
-80.41,418.00
-77.94,734.00
-75.48,73.00
-73.01,315.00
-70.55,-108.00
-68.09,79.00
-65.64,229.00
-63.18,87.00
-60.73,159.00
-58.27,-370.00
-55.82,463.00
-53.37,172.00
-50.92,-738.00
-48.48,175.00
-46.03,-2.00
-43.59,-379.00
-41.15,195.00
-38.71,102.00
-36.27,15.00
-33.83,259.00
-31.40,-703.00
-28.97,-204.00
-26.53,-230.00
-24.10,-401.00
-21.68,-353.00
-19.25,149.00
-16.82,452.00
-14.40,-363.00
-11.98,15.00
-9.56,-256.00
-7.14,158.00
-4.72,1039.00
-2.31,-284.00
0.10,283.00
2.52,203.00
4.93,-62.00
7.34,576.00
9.74,-11.00
12.15,-36.00
14.55,-272.00
16.95,260.00
19.36,-60.00
21.75,495.00
24.15,281.00
26.55,-151.00
28.94,63.00
31.34,165.00
33.73,493.00
36.12,73.00
38.50,-485.00
40.89,314.00
43.27,-190.00
45.66,-198.00
48.04,-263.00
50.42,-363.00
52.80,-368.00
55.17,579.00
57.55,444.00
59.92,-238.00
62.30,204.00
64.67,-58.00
67.04,272.00
69.40,185.00
71.77,585.00
74.13,-209.00
76.50,316.00
78.86,204.00
81.22,523.00
83.57,165.00
85.93,176.00
88.29,293.00
90.64,-278.00
92.99,-255.00
95.34,-385.00
97.69,98.00
100.04,339.00
102.38,-72.00
104.73,438.00
107.07,55.00
109.41,296.00
111.75,194.00
114.09,298.00
116.42,-359.00
118.76,255.00
121.09,-48.00
123.42,230.00
125.75,-89.00
128.08,379.00
130.41,535.00
132.74,194.00
135.06,-315.00
137.38,231.00
139.70,233.00
142.02,469.00
144.34,119.00
146.66,253.00
148.97,-459.00
151.29,81.00
153.60,278.00
155.91,239.00
158.22,-275.00
160.52,-245.00
162.83,357.00
165.13,-90.00
167.44,-333.00
169.74,127.00
172.04,-282.00
174.34,347.00
176.63,-307.00
178.93,-732.00
181.22,26.00
183.52,-341.00
185.81,-141.00
188.10,-35.00
190.38,-288.00
192.67,631.00
194.96,268.00
197.24,144.00
199.52,-79.00
201.80,205.00
204.08,32.00
206.36,-50.00
208.63,350.00
210.91,-139.00
213.18,-340.00
215.45,374.00
217.72,450.00
219.99,-54.00
222.26,-224.00
224.53,210.00
226.79,-49.00
229.05,-204.00
231.31,-69.00
233.57,-37.00
235.83,655.00
238.09,189.00
240.35,427.00
242.60,692.00
244.85,281.00
247.10,138.00
249.35,396.00
251.60,-109.00
253.85,67.00
256.09,84.00
258.34,-228.00
260.58,-28.00
262.82,263.00
265.06,202.00
267.30,379.00
269.54,170.00
271.77,0.00
274.01,628.00
276.24,-69.00
278.47,65.00
280.70,646.00
282.93,-88.00
285.15,182.00
287.38,398.00
289.60,0.00
291.83,543.00
294.05,407.00
296.27,314.00
298.48,35.00
300.70,400.00
302.92,564.00
305.13,458.00
307.34,77.00
309.56,358.00
311.77,306.00
313.97,669.00
316.18,-160.00
318.39,900.00
320.59,1150.00
322.79,1116.00
324.99,1656.00
327.19,1946.00
329.39,2427.00
331.59,2422.00
333.79,2112.00
335.98,3262.00
338.17,4566.00
340.37,3445.00
342.56,4603.00
344.74,5709.00
346.93,6937.00
349.12,8296.00
351.30,7849.00
353.49,8368.00
355.67,9061.00
357.85,9573.00
360.03,9301.00
362.21,10231.00
364.38,11120.00
366.56,10790.00
368.73,11993.00
370.90,11258.00
373.08,13163.00
375.24,12316.00
377.41,13107.00
379.58,13325.00
381.75,13961.00
383.91,14344.00
386.07,14156.00
388.23,14488.00
390.39,16159.00
392.55,17695.00
394.71,15240.00
396.87,17344.00
399.02,17025.00
401.17,17190.00
403.33,17831.00
405.48,17089.00
407.63,16814.00
409.77,15909.00
411.92,16898.00
414.07,15765.00
416.21,17041.00
418.35,16597.00
420.49,14718.00
422.63,15187.00
424.77,15643.00
426.91,15889.00
429.05,14715.00
431.18,16300.00
433.31,14006.00
435.45,16307.00
437.58,14135.00
439.71,15279.00
441.83,13200.00
443.96,15350.00
446.09,14860.00
448.21,13947.00
450.33,13346.00
452.45,13664.00
454.57,13977.00
456.69,13149.00
458.81,13598.00
460.93,12976.00
463.04,13503.00
465.16,12793.00
467.27,13171.00
469.38,13368.00
471.49,13917.00
473.60,13987.00
475.70,11814.00
477.81,12175.00
479.91,13254.00
482.02,13346.00
484.12,12193.00
486.22,13556.00
488.32,12642.00
490.42,12326.00
492.51,14196.00
494.61,13425.00
496.70,13317.00
498.80,13954.00
500.89,14390.00
502.98,13601.00
505.07,14088.00
507.15,13680.00
509.24,14304.00
511.33,14682.00
513.41,16567.00
515.49,16878.00
517.57,16687.00
519.65,17082.00
521.73,17037.00
523.81,17709.00
525.89,17437.00
527.96,19939.00
530.03,19002.00
532.11,18859.00
534.18,18607.00
536.25,19199.00
538.32,19406.00
540.38,20269.00
542.45,20632.00
544.51,19276.00
546.58,18556.00
548.64,19091.00
550.70,18685.00
552.76,19890.00
554.82,19208.00
556.88,19009.00
558.93,17471.00
560.99,17746.00
563.04,16942.00
565.09,16835.00
567.14,16100.00
569.19,16361.00
571.24,15863.00
573.29,16223.00
575.34,15370.00
577.38,16721.00
579.42,14863.00
581.47,13976.00
583.51,15227.00
585.55,14721.00
587.59,14269.00
589.62,14694.00
591.66,13681.00
593.70,13755.00
595.73,13629.00
597.76,13544.00
599.79,12266.00
601.82,13584.00
603.85,14062.00
605.88,13762.00
607.91,12071.00
609.93,13786.00
611.96,12400.00
613.98,13431.00
616.00,13035.00
618.02,13551.00
620.04,13628.00
622.06,15158.00
624.08,14241.00
626.09,14318.00
628.11,15252.00
630.12,16691.00
632.13,15175.00
634.14,14865.00
636.15,16101.00
638.16,15899.00
640.17,15675.00
642.17,15764.00
644.18,15817.00
646.18,16635.00
648.18,15153.00
650.18,15088.00
652.18,14421.00
654.18,14553.00
656.18,14712.00
658.18,13441.00
660.17,14548.00
662.17,12029.00
664.16,12870.00
666.15,15270.00
668.14,14155.00
670.13,12712.00
672.12,12318.00
674.11,13775.00
676.09,13624.00
678.08,11812.00
680.06,12619.00
682.04,13986.00
684.02,13122.00
686.00,12703.00
687.98,12872.00
689.96,13512.00
691.94,12937.00
693.91,13467.00
695.89,12932.00
697.86,13384.00
699.83,13433.00
701.80,13031.00
703.77,13393.00
705.74,13443.00
707.71,12849.00
709.67,13345.00
711.64,13392.00
713.60,13467.00
715.56,13662.00
717.52,13965.00
719.48,12845.00
721.44,13106.00
723.40,13555.00
725.36,14317.00
727.31,14183.00
729.27,14127.00
731.22,13989.00
733.17,14486.00
735.13,15029.00
737.08,14931.00
739.02,13371.00
740.97,13620.00
742.92,14986.00
744.86,12502.00
746.81,13551.00
748.75,13900.00
750.69,13772.00
752.63,12794.00
754.57,13202.00
756.51,14666.00
758.45,11406.00
760.39,12418.00
762.32,12453.00
764.26,11946.00
766.19,12793.00
768.12,12764.00
770.05,13662.00
771.98,13183.00
773.91,10809.00
775.84,12715.00
777.76,11800.00
779.69,11777.00
781.61,10929.00
783.54,11279.00
785.46,11209.00
787.38,11446.00
789.30,11227.00
791.22,12582.00
793.13,11756.00
795.05,13180.00
796.97,12196.00
798.88,12808.00
800.79,11235.00
802.70,11322.00
804.62,11118.00
806.52,12118.00
808.43,11360.00
810.34,11963.00
812.25,11566.00
814.15,11518.00
816.06,10595.00
817.96,11595.00
819.86,10851.00
821.76,10915.00
823.66,10275.00
825.56,11938.00
827.46,10935.00
829.36,11752.00
831.25,13650.00
833.15,12974.00
835.04,13176.00
836.93,15171.00
838.82,14266.00
840.71,14064.00
842.60,18189.00
844.49,19061.00
846.38,20697.00
848.26,22743.00
850.15,19764.00
852.03,21092.00
853.91,20129.00
855.80,19157.00
857.68,17740.00
859.56,18873.00
861.43,16140.00
863.31,18540.00
865.19,16593.00
867.06,16957.00
868.94,16421.00
870.81,16715.00
872.68,17300.00
874.55,16155.00
876.42,15503.00
878.29,15837.00
880.16,13659.00
882.03,15116.00
883.89,14295.00
885.76,14602.00
887.62,13051.00
889.48,13163.00
891.35,13333.00
893.21,13096.00
895.07,13224.00
896.92,10878.00
898.78,13144.00
900.64,13453.00
902.49,13071.00
904.35,14669.00
906.20,13952.00
908.05,13797.00
909.90,13805.00
911.75,15359.00
913.60,16069.00
915.45,16871.00
917.30,15357.00
919.14,15610.00
920.99,16346.00
922.83,16655.00
924.68,15806.00
926.52,16058.00
928.36,15288.00
930.20,16835.00
932.04,15545.00
933.87,15480.00
935.71,15438.00
937.55,14795.00
939.38,15278.00
941.21,14457.00
943.05,16311.00
944.88,17452.00
946.71,14407.00
948.54,16141.00
950.37,13599.00
952.20,14626.00
954.02,12767.00
955.85,14423.00
957.67,14227.00
959.50,13276.00
961.32,11928.00
963.14,13789.00
964.96,12622.00
966.78,12474.00
968.60,13173.00
970.42,13318.00
972.23,12909.00
974.05,12233.00
975.86,13177.00
977.68,11267.00
979.49,13354.00
981.30,13100.00
983.11,11118.00
984.92,13412.00
986.73,12807.00
988.54,13167.00
990.34,13534.00
992.15,12500.00
993.95,13683.00
995.76,12983.00
997.56,15096.00
999.36,14370.00
1001.16,14953.00
1002.96,15912.00
1004.76,13432.00
1006.56,14726.00
1008.35,15368.00
1010.15,13804.00
1011.94,13655.00
1013.74,13874.00
1015.53,14913.00
1017.32,15250.00
1019.11,15072.00
1020.90,14775.00
1022.69,14308.00
1024.48,16235.00
1026.27,15702.00
1028.05,16290.00
1029.84,15921.00
1031.62,16737.00
1033.41,17167.00
1035.19,19401.00
1036.97,20227.00
1038.75,19629.00
1040.53,19944.00
1042.31,18172.00
1044.08,17628.00
1045.86,19569.00
1047.64,19148.00
1049.41,18577.00
1051.18,16949.00
1052.96,19633.00
1054.73,17952.00
1056.50,17791.00
1058.27,17860.00
1060.04,15767.00
1061.81,15535.00
1063.57,15757.00
1065.34,16589.00
1067.10,16484.00
1068.87,15698.00
1070.63,17683.00
1072.39,17147.00
1074.15,16975.00
1075.91,16520.00
1077.67,17020.00
1079.43,16159.00
1081.19,17886.00
1082.95,16795.00
1084.70,18495.00
1086.46,17588.00
1088.21,17479.00
1089.96,17517.00
1091.71,15470.00
1093.47,17697.00
1095.22,17229.00
1096.96,17546.00
1098.71,15424.00
1100.46,17517.00
1102.21,16565.00
1103.95,17026.00
1105.70,15510.00
1107.44,16474.00
1109.18,17257.00
1110.92,18753.00
1112.66,17960.00
1114.40,19239.00
1116.14,18365.00
1117.88,19584.00
1119.62,20517.00
1121.35,18659.00
1123.09,19794.00
1124.82,20869.00
1126.56,20699.00
1128.29,21244.00
1130.02,22114.00
1131.75,20904.00
1133.48,19966.00
1135.21,21246.00
1136.94,19391.00
1138.67,19572.00
1140.39,17938.00
1142.12,18039.00
1143.84,18585.00
1145.57,17511.00
1147.29,17129.00
1149.01,17203.00
1150.73,16240.00
1152.45,16045.00
1154.17,16212.00
1155.89,14828.00
1157.60,16873.00
1159.32,15878.00
1161.04,15846.00
1162.75,15246.00
1164.46,16070.00
1166.18,15865.00
1167.89,15751.00
1169.60,14833.00
1171.31,15548.00
1173.02,14148.00
1174.73,14969.00
1176.43,13365.00
1178.14,15768.00
1179.85,13703.00
1181.55,14680.00
1183.25,14606.00
1184.96,13221.00
1186.66,14086.00
1188.36,12175.00
1190.06,13327.00
1191.76,12637.00
1193.46,13129.00
1195.16,13556.00
1196.85,13592.00
1198.55,13911.00
1200.24,12364.00
1201.94,12878.00
1203.63,13193.00
1205.32,14558.00
1207.02,11813.00
1208.71,12744.00
1210.40,12710.00
1212.09,12469.00
1213.77,12615.00
1215.46,12013.00
1217.15,13453.00
1218.83,12402.00
1220.52,12604.00
1222.20,12797.00
1223.88,14059.00
1225.57,13857.00
1227.25,15003.00
1228.93,16378.00
1230.61,14817.00
1232.29,13866.00
1233.96,16066.00
1235.64,16050.00
1237.32,16260.00
1238.99,15539.00
1240.67,15139.00
1242.34,16022.00
1244.01,14605.00
1245.69,16033.00
1247.36,16353.00
1249.03,15835.00
1250.70,14901.00
1252.36,15433.00
1254.03,15719.00
1255.70,15224.00
1257.37,16612.00
1259.03,14169.00
1260.69,15004.00
1262.36,15123.00
1264.02,15247.00
1265.68,14846.00
1267.34,13509.00
1269.00,13807.00
1270.66,14620.00
1272.32,13951.00
1273.98,13968.00
1275.64,12623.00
1277.29,12352.00
1278.95,12865.00
1280.60,12256.00
1282.25,12765.00
1283.91,12514.00
1285.56,12548.00
1287.21,12428.00
1288.86,12655.00
1290.51,12010.00
1292.16,12873.00
1293.81,12108.00
1295.45,11347.00
1297.10,10418.00
1298.74,11874.00
1300.39,12293.00
1302.03,10830.00
1303.68,11561.00
1305.32,10879.00
1306.96,11155.00
1308.60,10306.00
1310.24,11086.00
1311.88,10147.00
1313.52,12404.00
1315.15,12217.00
1316.79,13535.00
1318.42,12522.00
1320.06,12312.00
1321.69,12491.00
1323.33,12440.00
1324.96,13267.00
1326.59,13061.00
1328.22,11658.00
1329.85,13558.00
1331.48,13039.00
1333.11,13706.00
1334.74,13897.00
1336.36,13130.00
1337.99,14152.00
1339.61,13600.00
1341.24,13491.00
1342.86,14434.00
1344.48,14428.00
1346.11,14680.00
1347.73,14490.00
1349.35,13941.00
1350.97,13931.00
1352.58,13580.00
1354.20,14141.00
1355.82,15085.00
1357.44,14995.00
1359.05,15993.00
1360.67,15406.00
1362.28,14437.00
1363.89,15563.00
1365.51,14638.00
1367.12,16332.00
1368.73,15282.00
1370.34,14904.00
1371.95,13850.00
1373.56,15031.00
1375.17,16144.00
1376.77,15214.00
1378.38,15224.00
1379.98,14271.00
1381.59,13980.00
1383.19,13873.00
1384.80,14860.00
1386.40,14657.00
1388.00,13646.00
1389.60,14764.00
1391.20,14369.00
1392.80,14179.00
1394.40,13416.00
1396.00,14057.00
1397.59,13933.00
1399.19,13681.00
1400.78,12679.00
1402.38,12508.00
1403.97,13761.00
1405.57,13164.00
1407.16,12890.00
1408.75,13063.00
1410.34,13150.00
1411.93,13039.00
1413.52,13375.00
1415.11,11756.00
1416.70,13247.00
1418.28,12761.00
1419.87,11532.00
1421.46,14492.00
1423.04,14371.00
1424.63,13296.00
1426.21,12312.00
1427.79,13865.00
1429.37,13664.00
1430.95,13827.00
1432.54,13653.00
1434.11,12832.00
1435.69,14837.00
1437.27,12953.00
1438.85,13002.00
1440.43,13180.00
1442.00,14217.00
1443.58,14221.00
1445.15,14177.00
1446.72,14231.00
1448.30,14629.00
1449.87,14143.00
1451.44,14091.00
1453.01,16728.00
1454.58,14710.00
1456.15,16321.00
1457.72,16806.00
1459.29,14081.00
1460.85,14552.00
1462.42,16054.00
1463.99,15335.00
1465.55,14647.00
1467.12,15590.00
1468.68,15368.00
1470.24,15701.00
1471.80,14824.00
1473.36,16609.00
1474.93,14766.00
1476.49,14532.00
1478.04,13595.00
1479.60,11722.00
1481.16,14511.00
1482.72,14580.00
1484.27,13816.00
1485.83,13836.00
1487.38,12188.00
1488.94,12974.00
1490.49,11474.00
1492.04,10739.00
1493.60,11557.00
1495.15,9932.00
1496.70,10936.00
1498.25,9814.00
1499.80,11572.00
1501.34,9714.00
1502.89,10100.00
1504.44,9520.00
1505.98,9551.00
1507.53,9790.00
1509.07,9676.00
1510.62,8862.00
1512.16,9523.00
1513.70,8698.00
1515.25,9803.00
1516.79,9259.00
1518.33,9091.00
1519.87,8671.00
1521.41,9675.00
1522.95,8176.00
1524.48,8487.00
1526.02,8362.00
1527.56,7988.00
1529.09,9041.00
1530.63,8687.00
1532.16,9499.00
1533.69,8658.00
1535.23,8235.00
1536.76,8829.00
1538.29,8751.00
1539.82,7771.00
1541.35,9259.00
1542.88,9085.00
1544.41,7934.00
1545.94,8366.00
1547.47,9018.00
1548.99,8459.00
1550.52,7959.00
1552.04,7763.00
1553.57,8587.00
1555.09,8891.00
1556.61,7611.00
1558.14,8064.00
1559.66,7594.00
1561.18,7399.00
1562.70,7828.00
1564.22,8331.00
1565.74,9047.00
1567.26,8448.00
1568.78,7570.00
1570.29,8075.00
1571.81,8041.00
1573.32,8089.00
1574.84,7981.00
1576.35,7913.00
1577.87,9072.00
1579.38,7734.00
1580.89,7794.00
1582.41,8303.00
1583.92,7094.00
1585.43,8038.00
1586.94,8174.00
1588.45,8481.00
1589.95,7744.00
1591.46,7878.00
1592.97,7885.00
1594.47,7940.00
1595.98,8078.00
1597.49,8447.00
1598.99,7993.00
1600.49,6828.00
1602.00,6706.00
1603.50,7984.00
1605.00,7384.00
1606.50,8434.00
1608.00,7973.00
1609.50,7702.00
1611.00,7850.00
1612.50,6412.00
1614.00,7439.00
1615.49,7629.00
1616.99,6920.00
1618.49,7658.00
1619.98,7773.00
1621.48,7117.00
1622.97,7207.00
1624.46,7298.00
1625.96,6888.00
1627.45,7359.00
1628.94,7297.00
1630.43,7694.00
1631.92,8233.00
1633.41,6766.00
1634.90,7767.00
1636.39,7109.00
1637.87,7255.00
1639.36,7610.00
1640.85,8293.00
1642.33,7629.00
1643.82,7661.00
1645.30,7782.00
1646.78,7792.00
1648.27,7273.00
1649.75,7096.00
1651.23,7115.00
1652.71,7317.00
1654.19,7485.00
1655.67,8146.00
1657.15,6662.00
1658.63,7719.00
1660.11,7456.00
1661.58,7475.00
1663.06,7723.00
1664.54,7255.00
1666.01,8172.00
1667.49,7191.00
1668.96,7290.00
1670.43,6939.00
1671.91,7749.00
1673.38,7735.00
1674.85,7203.00
1676.32,6877.00
1677.79,8131.00
1679.26,7519.00
1680.73,6495.00
1682.20,7169.00
1683.67,7193.00
1685.14,6887.00
1686.60,7131.00
1688.07,7610.00
1689.53,7118.00
1691.00,6089.00
1692.46,7472.00
1693.93,8343.00
1695.39,8726.00
1696.85,7225.00
1698.31,7654.00
1699.77,8273.00
1701.23,6557.00
1702.69,8194.00
1704.15,8275.00
1705.61,7306.00
1707.07,7821.00
1708.53,7062.00
1709.98,6096.00
1711.44,6927.00
1712.90,8121.00
1714.35,6627.00
1715.81,6868.00
1717.26,6837.00
1718.71,7525.00
1720.16,6816.00
1721.62,7514.00
1723.07,6973.00
1724.52,6174.00
1725.97,6355.00
1727.42,7611.00
1728.87,6134.00
1730.32,7768.00
1731.76,7310.00
1733.21,7119.00
1734.66,7090.00
1736.10,7324.00
1737.55,6954.00
1738.99,7123.00
1740.44,6750.00
1741.88,6510.00
1743.32,6857.00
1744.77,7322.00
1746.21,6342.00
1747.65,7363.00
1749.09,6062.00
1750.53,6406.00
1751.97,6199.00
1753.41,6253.00
1754.85,6581.00
1756.29,7356.00
1757.72,6536.00
1759.16,6281.00
1760.60,7250.00
1762.03,6712.00
1763.47,5814.00
1764.90,6435.00
1766.33,6413.00
1767.77,6084.00
1769.20,5315.00
1770.63,6421.00
1772.06,6080.00
1773.49,5962.00
1774.92,6454.00
1776.35,6817.00
1777.78,6143.00
1779.21,6701.00
1780.64,6558.00
1782.07,7141.00
1783.49,6154.00
