ENLIGHTEN Version,1.6.8
Measurement ID,20190304-083733-457000-unknown
Serial Number,unknown
Label,2019-03-04 08:43:50 Sugar 10x300ms Spectrum
Integration Time,25
Timestamp,2019-03-04 08:37:33.457000
Note,
Temperature,-99
CCD C0,801.7174072265625
CCD C1,0.14122000336647034
CCD C2,-5.609700110653648e-06
CCD C3,-8.541699791919655e-09
CCD Offset,0
CCD Gain,1.9
Laser Wavelength,785.0
Laser Enable,True
Laser Power,100.0
Laser Temperature,-99
Pixel Count,1024

Wavenumber,Processed
265.63,251.90
267.83,334.10
270.02,438.90
272.22,596.70
274.41,818.10
276.60,1099.00
278.80,1454.60
280.99,1867.90
283.18,2376.70
285.37,2965.50
287.55,3614.00
289.74,4357.50
291.93,5093.00
294.11,5788.50
296.30,6388.80
298.48,6898.40
300.66,7312.40
302.84,7693.20
305.02,7893.20
307.20,8173.50
309.38,8282.00
311.56,8330.20
313.74,8143.70
315.91,7866.70
318.09,7520.40
320.26,7184.70
322.43,6875.00
324.61,6608.70
326.78,6454.20
328.95,6440.60
331.12,6426.80
333.28,6519.10
335.45,6611.90
337.62,6763.80
339.78,6930.20
341.95,7044.30
344.11,7070.40
346.27,7129.40
348.43,7105.00
350.59,7138.30
352.75,7207.70
354.91,7408.30
357.07,7718.10
359.23,8028.20
361.38,8292.50
363.54,8379.90
365.69,8291.50
367.84,7950.90
370.00,7567.90
372.15,7182.90
374.30,6916.60
376.45,6755.40
378.59,6679.00
380.74,6739.20
382.89,6887.20
385.03,7186.00
387.18,7652.40
389.32,8463.80
391.46,9745.40
393.60,11449.30
395.74,13486.80
397.88,15180.30
400.02,16034.20
402.16,15872.40
404.29,14651.20
406.43,13027.30
408.57,11424.60
410.70,10303.60
412.83,9726.40
414.96,9460.50
417.09,9180.70
419.22,8832.70
421.35,8449.90
423.48,7918.90
425.61,7622.50
427.73,7449.10
429.86,7554.60
431.98,7963.30
434.11,8578.80
436.23,9350.50
438.35,10083.80
440.47,10463.40
442.59,10401.10
444.71,9892.30
446.82,9129.80
448.94,8248.10
451.05,7504.20
453.17,6963.50
455.28,6634.80
457.39,6451.00
459.51,6346.70
461.62,6300.30
463.73,6365.20
465.83,6444.20
467.94,6537.40
470.05,6638.60
472.15,6778.70
474.26,6811.90
476.36,6836.30
478.47,6837.40
480.57,6815.00
482.67,6888.40
484.77,7006.00
486.87,7214.00
488.97,7445.50
491.06,7716.10
493.16,7956.50
495.25,8050.90
497.35,8008.80
499.44,7870.40
501.53,7623.60
503.62,7413.70
505.71,7260.10
507.80,7177.20
509.89,7272.80
511.98,7586.50
514.07,8206.90
516.15,9351.60
518.24,10922.60
520.32,12612.60
522.40,13987.70
524.48,14699.30
526.56,14854.20
528.64,14493.80
530.72,14144.10
532.80,13943.10
534.88,13954.00
536.95,14121.20
539.03,14266.80
541.10,14409.70
543.17,14583.80
545.24,14729.30
547.32,14950.60
549.39,15032.20
551.45,14809.70
553.52,14176.80
555.59,13236.00
557.66,12101.40
559.72,10923.10
561.78,9877.20
563.85,9095.20
565.91,8552.60
567.97,8237.20
570.03,8102.90
572.09,8131.30
574.15,8310.10
576.21,8744.50
578.26,9266.20
580.32,9781.50
582.37,10070.10
584.42,10036.50
586.48,9658.60
588.53,9031.70
590.58,8348.20
592.63,7800.70
594.68,7395.50
596.72,7150.00
598.77,7005.00
600.82,6921.70
602.86,6899.50
604.90,6867.80
606.95,6840.20
608.99,6858.30
611.03,6899.90
613.07,6929.30
615.11,6988.40
617.15,7101.20
619.18,7190.80
621.22,7364.30
623.25,7523.70
625.29,7822.40
627.32,8234.40
629.35,8750.70
631.38,9526.80
633.41,10351.40
635.44,11178.00
637.47,12004.60
639.50,12356.90
641.52,12286.30
643.55,11768.90
645.57,10919.90
647.60,9905.20
649.62,8994.50
651.64,8206.50
653.66,7675.90
655.68,7250.60
657.70,6963.40
659.71,6746.10
661.73,6614.60
663.75,6490.30
665.76,6485.10
667.77,6502.70
669.79,6550.00
671.80,6673.90
673.81,6916.80
675.82,7130.30
677.83,7267.80
679.83,7303.20
681.84,7305.20
683.84,7253.40
685.85,7190.20
687.85,7148.90
689.86,7174.20
691.86,7304.50
693.86,7404.00
695.86,7534.50
697.86,7650.60
699.85,7680.60
701.85,7671.20
703.85,7604.30
705.84,7467.50
707.84,7367.40
709.83,7262.60
711.82,7169.40
713.81,7103.60
715.80,7053.70
717.79,7038.00
719.78,7065.90
721.76,7066.40
723.75,7120.00
725.74,7302.20
727.72,7593.30
729.70,7871.30
731.68,8277.20
733.67,8621.20
735.65,8882.60
737.62,8945.30
739.60,8859.70
741.58,8634.10
743.56,8307.80
745.53,7970.10
747.51,7674.00
749.48,7459.40
751.45,7232.80
753.42,7044.10
755.39,6872.20
757.36,6742.60
759.33,6621.50
761.30,6516.90
763.26,6411.00
765.23,6380.10
767.19,6265.00
769.16,6262.20
771.12,6197.10
773.08,6148.10
775.04,6121.30
777.00,6092.10
778.96,6059.40
780.92,6006.90
782.87,6048.90
784.83,6011.20
786.78,5989.20
788.74,5977.90
790.69,5957.00
792.64,5964.40
794.59,5941.10
796.54,5945.70
798.49,5903.80
800.44,5957.00
802.38,5964.00
804.33,5971.40
806.27,5985.70
808.22,6026.20
810.16,5993.40
812.10,6041.30
814.04,6043.90
815.98,6108.20
817.92,6120.70
819.86,6182.60
821.80,6280.50
823.73,6349.50
825.67,6457.80
827.60,6598.40
829.53,6761.50
831.47,7010.80
833.40,7476.10
835.33,7942.00
837.26,8913.30
839.18,10531.10
841.11,13026.20
843.04,16493.20
844.96,20155.50
846.89,22825.00
848.81,23867.90
850.73,22917.00
852.65,20311.30
854.57,16692.10
856.49,13379.40
858.41,11043.20
860.33,9793.20
862.24,9286.30
864.16,9345.90
866.07,9596.20
867.99,9826.70
869.90,10071.50
871.81,10073.90
873.72,9892.60
875.63,9538.30
877.54,9007.10
879.44,8402.50
881.35,7863.30
883.26,7333.70
885.16,7000.10
887.06,6758.90
888.97,6609.10
890.87,6552.20
892.77,6539.40
894.67,6624.30
896.57,6718.90
898.46,7003.10
900.36,7348.20
902.26,7941.30
904.15,8729.60
906.04,9546.20
907.94,10309.10
909.83,10893.70
911.72,11348.90
913.61,11689.10
915.50,12044.30
917.38,12465.80
919.27,12681.30
921.16,12624.80
923.04,12194.30
924.92,11361.60
926.81,10342.90
928.69,9304.60
930.57,8639.90
932.45,8236.70
934.33,8311.80
936.20,8731.00
938.08,9304.40
939.96,9754.70
941.83,10061.70
943.71,9939.20
945.58,9478.70
947.45,8786.20
949.32,8040.00
951.19,7409.80
953.06,6891.50
954.93,6615.30
956.79,6422.90
958.66,6280.40
960.52,6229.30
962.39,6197.60
964.25,6142.50
966.11,6125.60
967.97,6146.50
969.83,6099.40
971.69,6128.90
973.55,6118.40
975.41,6182.40
977.26,6253.30
979.12,6331.50
980.97,6440.20
982.82,6652.70
984.68,6880.70
986.53,7154.60
988.38,7379.60
990.23,7569.30
992.07,7669.40
993.92,7669.10
995.77,7639.70
997.61,7695.30
999.46,7796.10
1001.30,8058.10
1003.14,8471.00
1004.98,9036.60
1006.82,9633.20
1008.66,10332.30
1010.50,10867.50
1012.34,11187.70
1014.17,11199.10
1016.01,10837.80
1017.84,10174.90
1019.68,9483.20
1021.51,8845.40
1023.34,8436.80
1025.17,8427.80
1027.00,8821.50
1028.83,9741.00
1030.65,11287.90
1032.48,13149.90
1034.31,15021.50
1036.13,16455.60
1037.95,17193.70
1039.77,16736.70
1041.60,16278.80
1043.42,15157.00
1045.24,14044.80
1047.05,13157.20
1048.87,12436.70
1050.69,11922.90
1052.50,11501.70
1054.32,11009.20
1056.13,10582.40
1057.94,10153.90
1059.75,9825.10
1061.56,9654.70
1063.37,9691.80
1065.18,9809.80
1066.99,10039.90
1068.80,10197.80
1070.60,10395.90
1072.41,10601.80
1074.21,10842.60
1076.01,11172.60
1077.81,11512.90
1079.61,11838.20
1081.41,12193.20
1083.21,12428.80
1085.01,12657.70
1086.81,12688.30
1088.60,12601.60
1090.40,12353.20
1092.19,11974.90
1093.98,11538.20
1095.77,11326.70
1097.56,11281.60
1099.35,11499.80
1101.14,11844.60
1102.93,12200.80
1104.72,12455.20
1106.50,12538.40
1108.29,12681.50
1110.07,13001.60
1111.85,13566.10
1113.63,14424.10
1115.41,15520.50
1117.19,16774.10
1118.97,18162.20
1120.75,19374.20
1122.53,20319.30
1124.30,20726.60
1126.08,20580.40
1127.85,19732.60
1129.62,18525.40
1131.39,16806.20
1133.17,15098.20
1134.93,13562.90
1136.70,12144.60
1138.47,10968.50
1140.24,10044.10
1142.00,9332.10
1143.77,8834.30
1145.53,8534.20
1147.29,8370.30
1149.06,8420.90
1150.82,8744.50
1152.58,9167.70
1154.34,9962.50
1156.09,10887.90
1157.85,11716.80
1159.61,12298.70
1161.36,12485.00
1163.11,12286.80
1164.87,11884.20
1166.62,11359.30
1168.37,10830.10
1170.12,10490.60
1171.87,10097.40
1173.62,9688.10
1175.36,9227.10
1177.11,8706.90
1178.85,8184.60
1180.60,7811.60
1182.34,7462.40
1184.08,7295.80
1185.82,7185.60
1187.56,7154.30
1189.30,7169.50
1191.04,7233.30
1192.78,7330.70
1194.51,7517.60
1196.25,7730.80
1197.98,7947.50
1199.71,8286.30
1201.45,8606.80
1203.18,8915.50
1204.91,9193.30
1206.64,9362.30
1208.36,9380.70
1210.09,9292.60
1211.82,9149.20
1213.54,8934.50
1215.27,8723.70
1216.99,8573.60
1218.71,8468.70
1220.43,8533.70
1222.15,8702.40
1223.87,9035.30
1225.59,9555.10
1227.31,10214.30
1229.02,10964.30
1230.74,11911.90
1232.45,12901.60
1234.16,13885.50
1235.88,14375.60
1237.59,14865.80
1239.30,14799.10
1241.01,14243.30
1242.71,13431.30
1244.42,12434.00
1246.13,11528.20
1247.83,10713.20
1249.54,10202.90
1251.24,9879.00
1252.94,9702.90
1254.64,9804.70
1256.34,9915.40
1258.04,10182.70
1259.74,10405.90
1261.44,10534.90
1263.13,10522.40
1264.83,10473.50
1266.52,10320.00
1268.22,10112.10
1269.91,10031.90
1271.60,9990.30
1273.29,10054.80
1274.98,10077.00
1276.67,10018.00
1278.35,9993.50
1280.04,9912.60
1281.73,9754.30
1283.41,9517.90
1285.09,9410.30
1286.78,9191.90
1288.46,9089.00
1290.14,9010.50
1291.82,8957.50
1293.49,8992.20
1295.17,9026.80
1296.85,9104.70
1298.52,9280.20
1300.20,9350.90
1301.87,9455.90
1303.54,9533.30
1305.21,9563.30
1306.88,9601.90
1308.55,9598.80
1310.22,9634.50
1311.89,9758.20
1313.56,9921.40
1315.22,10192.10
1316.89,10492.20
1318.55,10978.90
1320.21,11443.90
1321.87,11895.60
1323.53,12294.90
1325.19,12625.50
1326.85,12757.60
1328.51,12777.30
1330.16,12636.40
1331.82,12507.30
1333.47,12381.90
1335.13,12311.20
1336.78,12468.30
1338.43,12807.00
1340.08,13328.60
1341.73,13968.40
1343.38,14701.80
1345.03,15330.90
1346.67,15786.70
1348.32,15996.20
1349.96,15862.60
1351.61,15574.10
1353.25,15122.60
1354.89,14673.30
1356.53,14414.90
1358.17,14488.60
1359.81,14618.30
1361.45,15019.80
1363.08,15458.80
1364.72,15812.50
1366.35,15938.60
1367.99,15912.40
1369.62,15849.60
1371.25,15546.80
1372.88,15386.00
1374.51,15276.30
1376.14,15098.30
1377.77,14939.80
1379.39,14658.30
1381.02,14281.80
1382.64,13932.80
1384.27,13449.30
1385.89,13119.70
1387.51,12752.20
1389.13,12470.40
1390.75,12243.10
1392.37,12034.60
1393.99,11910.40
1395.60,11752.70
1397.22,11757.80
1398.83,11691.30
1400.45,11728.10
1402.06,11906.90
1403.67,11984.00
1405.28,12114.60
1406.89,12273.10
1408.50,12361.50
1410.11,12412.40
1411.71,12438.90
1413.32,12453.50
1414.92,12528.90
1416.53,12636.60
1418.13,12740.50
1419.73,12861.30
1421.33,12910.90
1422.93,13042.60
1424.53,13059.70
1426.13,13028.40
1427.72,13053.50
1429.32,12949.80
1430.91,12920.70
1432.51,12873.90
1434.10,12875.50
1435.69,12671.30
1437.28,12589.10
1438.87,12463.90
1440.46,12328.50
1442.05,12243.40
1443.64,12080.70
1445.22,11963.00
1446.81,11967.50
1448.39,12036.30
1449.97,12257.40
1451.55,12696.10
1453.14,13465.00
1454.72,14562.90
1456.29,15894.60
1457.87,17179.20
1459.45,18217.10
1461.02,18751.00
1462.60,18638.40
1464.17,17907.00
1465.75,16816.80
1467.32,15481.70
1468.89,14413.80
1470.46,13465.30
1472.03,12754.60
1473.59,12224.00
1475.16,11753.40
1476.73,11286.30
1478.29,10758.50
1479.86,10252.30
1481.42,9785.40
1482.98,9376.40
1484.54,9042.10
1486.10,8827.00
1487.66,8677.00
1489.22,8526.50
1490.77,8394.30
1492.33,8387.40
1493.88,8293.60
1495.44,8301.90
1496.99,8246.00
1498.54,8133.30
1500.09,8178.60
1501.64,8142.40
1503.19,8107.70
1504.74,8051.40
1506.29,7963.50
1507.83,8000.60
1509.38,7996.30
1510.92,7935.70
1512.47,7983.40
1514.01,7893.50
1515.55,7901.00
1517.09,7891.10
1518.63,7867.00
1520.16,7804.40
1521.70,7859.70
1523.24,7800.80
1524.77,7813.00
1526.31,7799.30
1527.84,7754.00
1529.37,7748.10
1530.90,7758.70
1532.43,7756.60
1533.96,7748.50
1535.49,7743.00
1537.02,7694.40
1538.54,7701.50
1540.07,7659.70
1541.59,7704.80
1543.11,7646.00
1544.64,7597.10
1546.16,7624.10
1547.68,7598.10
1549.20,7620.90
1550.71,7559.10
1552.23,7557.60
1553.75,7515.70
1555.26,7524.70
1556.78,7506.60
1558.29,7467.30
1559.80,7491.50
1561.31,7475.40
1562.82,7402.60
1564.33,7415.40
1565.84,7344.40
1567.35,7290.70
1568.85,7384.70
1570.36,7325.90
1571.86,7302.60
1573.36,7299.50
1574.87,7233.00
1576.37,7221.50
1577.87,7260.90
1579.37,7195.60
1580.87,7175.80
1582.36,7170.30
1583.86,7170.80
1585.35,7087.60
1586.85,7084.50
1588.34,7095.70
1589.83,7101.20
1591.32,7019.10
1592.81,6982.40
1594.30,7022.40
1595.79,6956.10
1597.28,6941.80
1598.76,6972.20
1600.25,6919.60
1601.73,6886.30
1603.22,6863.50
1604.70,6912.90
1606.18,6839.80
1607.66,6852.10
1609.14,6806.30
1610.62,6767.20
1612.10,6785.40
1613.57,6785.00
1615.05,6766.80
1616.52,6736.60
1617.99,6804.30
1619.47,6635.90
1620.94,6690.40
1622.41,6687.90
1623.88,6638.30
1625.35,6625.10
1626.81,6644.00
1628.28,6630.20
1629.74,6587.30
1631.21,6557.50
1632.67,6607.30
1634.13,6561.00
1635.60,6548.50
1637.06,6534.20
1638.51,6539.10
1639.97,6508.50
1641.43,6464.80
1642.89,6427.70
1644.34,6447.80
1645.80,6425.00
1647.25,6418.40
1648.70,6407.40
1650.15,6433.80
1651.60,6431.10
1653.05,6373.00
1654.50,6371.80
1655.95,6373.10
1657.40,6352.00
1658.84,6312.00
1660.28,6337.60
1661.73,6287.00
1663.17,6278.90
1664.61,6235.40
1666.05,6210.40
1667.49,6263.90
1668.93,6197.80
1670.37,6164.40
1671.80,6196.90
1673.24,6203.10
1674.67,6150.60
1676.11,6129.40
1677.54,6110.30
1678.97,6136.40
1680.40,6129.30
1681.83,6071.50
1683.26,6009.10
1684.69,6043.30
1686.11,6023.60
1687.54,5990.50
1688.96,5954.20
1690.39,5971.30
1691.81,5971.00
1693.23,5950.70
1694.65,5930.30
1696.07,5889.20
1697.49,5848.50
1698.91,5885.40
1700.32,5886.00
1701.74,5854.10
1703.15,5800.00
1704.57,5805.80
1705.98,5767.30
1707.39,5765.80
1708.80,5696.30
1710.21,5711.40
1711.62,5693.50
1713.03,5707.80
1714.43,5670.20
1715.84,5646.30
1717.24,5663.50
1718.65,5589.50
1720.05,5611.80
1721.45,5596.90
1722.85,5576.10
1724.25,5532.20
1725.65,5520.00
1727.05,5457.10
1728.44,5464.50
1729.84,5453.50
1731.23,5402.80
1732.63,5436.20
1734.02,5403.10
1735.41,5355.50
1736.80,5352.90
1738.19,5348.10
1739.58,5307.10
1740.97,5313.20
1742.35,5257.70
1743.74,5264.50
1745.12,5221.90
1746.51,5209.10
1747.89,5159.40
1749.27,5174.60
1750.65,5161.40
1752.03,5163.00
1753.41,5155.90
1754.79,5143.00
1756.17,5094.20
1757.54,5063.40
1758.92,5076.90
1760.29,5023.10
1761.66,5045.30
1763.03,5031.00
1764.41,5039.00
1765.78,4972.20
1767.14,4994.40
1768.51,4938.30
1769.88,4976.70
1771.24,4929.90
1772.61,4911.40
1773.97,4909.20
1775.34,4877.10
1776.70,4809.20
1778.06,4862.10
1779.42,4834.40
1780.78,4831.90
1782.13,4805.70
1783.49,4762.70
1784.85,4772.50
1786.20,4761.80
1787.56,4715.50
1788.91,4737.70
1790.26,4694.70
1791.61,4697.40
1792.96,4632.60
1794.31,4677.50
1795.66,4624.00
1797.00,4614.60
1798.35,4606.20
1799.69,4576.10
1801.04,4581.70
1802.38,4562.40
1803.72,4532.50
1805.06,4555.40
1806.40,4542.90
1807.74,4528.10
1809.08,4552.50
1810.42,4515.70
1811.75,4482.70
1813.09,4466.90
1814.42,4496.90
1815.76,4467.80
1817.09,4435.70
1818.42,4436.20
1819.75,4405.10
1821.08,4370.40
1822.40,4404.20
1823.73,4407.80
1825.06,4393.90
1826.38,4367.30
1827.71,4331.30
1829.03,4343.60
1830.35,4333.40
1831.67,4296.20
1832.99,4314.60
1834.31,4280.50
1835.63,4309.70
1836.95,4263.50
1838.26,4234.80
1839.58,4226.00
1840.89,4232.20
1842.20,4187.50
1843.52,4197.90
1844.83,4196.90
1846.14,4179.90
1847.45,4190.00
1848.75,4149.80
1850.06,4145.90
1851.37,4128.00
1852.67,4116.60
1853.98,4104.70
1855.28,4079.30
1856.58,4062.50
1857.88,4068.90
1859.18,4071.30
1860.48,4064.20
1861.78,4048.20
1863.08,4032.20
1864.37,4007.00
1865.67,4028.30
1866.96,3979.90
1868.26,3995.50
1869.55,3939.30
1870.84,3953.50
1872.13,3946.10
1873.42,3938.90
1874.71,3951.70
1875.99,3927.60
1877.28,3907.50
1878.56,3931.50
1879.85,3870.00
1881.13,3875.10
1882.41,3853.60
1883.69,3835.90
1884.97,3861.80
1886.25,3841.00
1887.53,3821.00
1888.81,3786.40
1890.09,3777.50
1891.36,3777.30
1892.63,3769.70
1893.91,3755.30
1895.18,3719.10
1896.45,3732.60
1897.72,3707.90
1898.99,3738.60
1900.26,3679.50
1901.53,3674.70
1902.79,3677.10
1904.06,3649.70
1905.32,3644.80
1906.58,3607.50
1907.85,3605.30
1909.11,3583.40
1910.37,3579.60
1911.63,3584.80
1912.89,3526.10
1914.14,3544.40
1915.40,3550.10
1916.65,3532.10
1917.91,3481.50
1919.16,3490.50
1920.41,3489.10
1921.67,3466.30
1922.92,3455.80
1924.17,3434.40
1925.41,3397.70
1926.66,3387.30
1927.91,3374.70
1929.15,3361.90
1930.40,3330.60
1931.64,3348.30
1932.88,3373.90
1934.12,3302.00
1935.36,3310.00
1936.60,3283.60
1937.84,3243.90
1939.08,3240.20
1940.32,3236.00
1941.55,3244.40
1942.79,3244.60
1944.02,3203.80
1945.25,3176.00
1946.48,3149.90
1947.71,3190.70
1948.94,3132.20
1950.17,3169.80
1951.40,3155.50
1952.62,3099.60
1953.85,3109.00
1955.07,3062.70
1956.30,3062.90
1957.52,3060.70
1958.74,3061.40
1959.96,3064.20
1961.18,3051.80
1962.40,3022.70
1963.62,3018.80
1964.83,3003.70
1966.05,2983.50
1967.26,2951.50
1968.48,2940.00
1969.69,2962.60
1970.90,2914.30
1972.11,2903.40
1973.32,2914.80
1974.53,2918.70
1975.74,2887.70
1976.94,2862.30
1978.15,2876.90
1979.35,2852.40
1980.56,2857.40
1981.76,2816.90
1982.96,2815.60
1984.16,2764.60
1985.36,2763.30
1986.56,2772.80
1987.76,2719.10
1988.95,2722.20
1990.15,2676.10
1991.34,2687.40
1992.54,2673.40
1993.73,2667.40
1994.92,2654.80
1996.11,2618.90
1997.30,2616.40
1998.49,2603.70
1999.68,2565.00
