ENLIGHTEN Version,1.6.8
Measurement ID,20190528-123140-841277-WP-00193
Serial Number,WP-00193
Label,Sugar
Integration Time,200
Timestamp,2019-05-28 12:31:40.841277
Note,
Temperature,-99
CCD C0,536.9577026367188
CCD C1,0.11947000026702881
CCD C2,-1.3838999620929826e-05
CCD C3,-3.2027001051204707e-09
CCD Offset,0
CCD Gain,1.9
Laser Wavelength,532.0
Laser Enable,False
Laser Power,100.0
Laser Temperature,-99
Pixel Count,1024

Wavenumber,Processed
173.55,82.00
177.69,83.00
181.83,74.00
185.97,99.00
190.10,61.00
194.23,74.00
198.36,112.00
202.49,92.00
206.61,78.00
210.73,91.00
214.85,118.00
218.96,118.00
223.07,106.00
227.18,122.00
231.29,101.00
235.39,135.00
239.49,170.00
243.59,110.00
247.68,156.00
251.78,181.00
255.87,173.00
259.95,184.00
264.04,230.00
268.12,263.00
272.19,306.00
276.27,399.00
280.34,455.00
284.41,625.00
288.48,824.00
292.54,1020.00
296.61,1273.00
300.67,1760.00
304.72,2295.00
308.78,2967.00
312.83,3835.00
316.87,4870.00
320.92,6059.00
324.96,7495.00
329.00,9026.00
333.04,10726.00
337.07,12332.00
341.10,13977.00
345.13,15266.00
349.16,16562.00
353.18,17625.00
357.20,18417.00
361.22,18858.00
365.24,19570.00
369.25,20008.00
373.26,20258.00
377.27,20636.00
381.27,20770.00
385.27,20869.00
389.27,21032.00
393.27,21375.00
397.26,21702.00
401.25,22227.00
405.24,22473.00
409.22,22662.00
413.21,22664.00
417.19,22853.00
421.16,22921.00
425.14,23055.00
429.11,23292.00
433.08,23208.00
437.05,23400.00
441.01,23498.00
444.97,23653.00
448.93,23631.00
452.89,23637.00
456.84,23925.00
460.79,24064.00
464.74,24143.00
468.68,24378.00
472.62,24553.00
476.56,24870.00
480.50,24993.00
484.44,25149.00
488.37,25427.00
492.30,25598.00
496.22,25750.00
500.15,26022.00
504.07,26410.00
507.99,26840.00
511.90,27118.00
515.81,27392.00
519.72,28079.00
523.63,28449.00
527.54,28775.00
531.44,28866.00
535.34,28809.00
539.24,29050.00
543.13,29245.00
547.02,29309.00
550.91,29241.00
554.80,29285.00
558.68,29433.00
562.56,29471.00
566.44,29561.00
570.32,29481.00
574.19,29751.00
578.06,29886.00
581.93,29848.00
585.80,30105.00
589.66,30466.00
593.52,30702.00
597.38,30873.00
601.23,30911.00
605.09,31350.00
608.94,31531.00
612.78,31647.00
616.63,31891.00
620.47,32115.00
624.31,32050.00
628.15,32422.00
631.98,32802.00
635.81,33123.00
639.64,33541.00
643.47,33765.00
647.29,33917.00
651.11,34101.00
654.93,33984.00
658.75,33873.00
662.56,34157.00
666.37,34350.00
670.18,34389.00
673.99,34624.00
677.79,34737.00
681.59,34897.00
685.39,35302.00
689.18,35504.00
692.97,35541.00
696.77,35732.00
700.55,35945.00
704.34,36216.00
708.12,36207.00
711.90,36514.00
715.68,36245.00
719.45,36310.00
723.22,36631.00
726.99,36565.00
730.76,36765.00
734.53,36980.00
738.29,37263.00
742.05,37577.00
745.80,37640.00
749.56,37720.00
753.31,37853.00
757.06,37746.00
760.80,37756.00
764.55,37952.00
768.29,38230.00
772.03,38345.00
775.77,38612.00
779.50,38789.00
783.23,39291.00
786.96,39363.00
790.69,39586.00
794.41,39901.00
798.13,39926.00
801.85,39971.00
805.57,40140.00
809.28,40326.00
812.99,40379.00
816.70,40669.00
820.40,40777.00
824.11,41081.00
827.81,41353.00
831.51,41180.00
835.20,41597.00
838.90,41888.00
842.59,42761.00
846.28,43346.00
849.96,44057.00
853.65,44132.00
857.33,44007.00
861.00,43811.00
864.68,43282.00
868.35,43130.00
872.02,43339.00
875.69,43378.00
879.36,43381.00
883.02,43344.00
886.68,43375.00
890.34,43424.00
894.00,43412.00
897.65,43571.00
901.30,43879.00
904.95,44129.00
908.59,44222.00
912.24,44503.00
915.88,44460.00
919.52,44709.00
923.15,44899.00
926.79,44908.00
930.42,44878.00
934.05,44966.00
937.67,45059.00
941.30,45238.00
944.92,45387.00
948.54,45327.00
952.15,45541.00
955.77,45338.00
959.38,45428.00
962.99,45530.00
966.59,45816.00
970.20,46111.00
973.80,46432.00
977.40,46712.00
980.99,46762.00
984.59,47045.00
988.18,47147.00
991.77,47273.00
995.35,47600.00
998.94,47495.00
1002.52,48091.00
1006.10,48114.00
1009.67,48595.00
1013.25,48854.00
1016.82,48974.00
1020.39,49170.00
1023.96,48942.00
1027.52,49008.00
1031.08,49322.00
1034.64,49473.00
1038.20,50140.00
1041.76,50340.00
1045.31,50418.00
1048.86,50164.00
1052.41,50216.00
1055.95,50036.00
1059.49,50022.00
1063.03,50102.00
1066.57,49907.00
1070.11,49957.00
1073.64,49773.00
1077.17,50170.00
1080.70,50254.00
1084.22,50471.00
1087.75,50658.00
1091.27,50937.00
1094.79,50892.00
1098.30,50892.00
1101.82,50918.00
1105.33,51116.00
1108.84,51110.00
1112.34,51300.00
1115.85,51578.00
1119.35,52040.00
1122.85,52676.00
1126.35,53058.00
1129.84,53261.00
1133.33,53069.00
1136.82,52648.00
1140.31,52244.00
1143.79,51848.00
1147.28,51677.00
1150.76,51964.00
1154.23,52141.00
1157.71,52416.00
1161.18,52809.00
1164.65,53226.00
1168.12,53391.00
1171.59,53550.00
1175.05,53260.00
1178.51,53400.00
1181.97,53433.00
1185.43,53168.00
1188.88,53071.00
1192.33,53228.00
1195.78,53446.00
1199.23,53635.00
1202.67,53753.00
1206.11,54063.00
1209.55,54437.00
1212.99,54460.00
1216.43,54605.00
1219.86,54310.00
1223.29,54329.00
1226.72,54416.00
1230.14,54580.00
1233.57,55165.00
1236.99,55349.00
1240.40,55577.00
1243.82,55796.00
1247.23,55663.00
1250.65,55444.00
1254.06,55356.00
1257.46,55443.00
1260.87,55309.00
1264.27,55376.00
1267.67,55299.00
1271.07,55349.00
1274.46,55352.00
1277.85,55624.00
1281.24,55651.00
1284.63,55923.00
1288.02,55948.00
1291.40,56070.00
1294.78,56157.00
1298.16,56145.00
1301.54,56068.00
1304.91,56115.00
1308.28,55950.00
1311.65,56294.00
1315.02,56466.00
1318.38,56694.00
1321.75,57006.00
1325.11,57253.00
1328.46,57257.00
1331.82,57212.00
1335.17,57318.00
1338.52,56936.00
1341.87,57080.00
1345.22,57194.00
1348.56,57418.00
1351.90,57586.00
1355.24,57757.00
1358.58,57719.00
1361.92,57908.00
1365.25,57866.00
1368.58,58033.00
1371.91,57957.00
1375.23,57742.00
1378.55,57586.00
1381.88,57591.00
1385.19,57375.00
1388.51,57454.00
1391.82,57618.00
1395.14,57793.00
1398.45,58062.00
1401.75,58084.00
1405.06,58212.00
1408.36,58333.00
1411.66,58451.00
1414.96,58196.00
1418.25,58213.00
1421.55,58402.00
1424.84,58644.00
1428.13,58876.00
1431.41,59001.00
1434.70,59054.00
1437.98,59191.00
1441.26,59279.00
1444.54,59405.00
1447.81,59224.00
1451.09,59294.00
1454.36,59637.00
1457.63,60034.00
1460.89,60525.00
1464.16,60915.00
1467.42,60904.00
1470.68,60572.00
1473.93,60230.00
1477.19,60019.00
1480.44,59869.00
1483.69,59448.00
1486.94,59406.00
1490.19,59393.00
1493.43,59488.00
1496.67,59500.00
1499.91,59578.00
1503.15,59544.00
1506.38,59644.00
1509.61,59886.00
1512.84,59722.00
1516.07,59926.00
1519.30,59702.00
1522.52,59719.00
1525.74,59703.00
1528.96,59798.00
1532.18,59794.00
1535.39,60055.00
1538.60,60344.00
1541.81,60495.00
1545.02,60379.00
1548.23,60434.00
1551.43,60534.00
1554.63,60437.00
1557.83,60203.00
1561.03,60228.00
1564.22,60177.00
1567.41,60169.00
1570.60,60184.00
1573.79,60361.00
1576.98,60568.00
1580.16,60529.00
1583.34,60647.00
1586.52,60363.00
1589.70,60255.00
1592.87,60013.00
1596.04,59892.00
1599.21,59827.00
1602.38,59715.00
1605.55,59743.00
1608.71,59906.00
1611.87,59946.00
1615.03,60060.00
1618.19,59861.00
1621.34,59922.00
1624.50,59819.00
1627.65,59950.00
1630.79,59798.00
1633.94,59798.00
1637.08,60021.00
1640.22,60176.00
1643.36,60350.00
1646.50,60371.00
1649.64,60418.00
1652.77,60567.00
1655.90,60504.00
1659.03,60293.00
1662.15,60263.00
1665.28,60490.00
1668.40,60431.00
1671.52,60502.00
1674.64,60803.00
1677.75,60908.00
1680.86,60877.00
1683.97,61065.00
1687.08,61119.00
1690.19,61065.00
1693.29,60871.00
1696.40,60726.00
1699.50,60869.00
1702.59,60900.00
1705.69,60715.00
1708.78,60812.00
1711.87,60708.00
1714.96,60972.00
1718.05,60900.00
1721.13,60963.00
1724.22,60976.00
1727.30,60763.00
1730.38,60742.00
1733.45,60771.00
1736.53,60880.00
1739.60,60871.00
1742.67,60985.00
1745.73,61043.00
1748.80,61265.00
1751.86,61482.00
1754.92,61670.00
1757.98,61415.00
1761.04,61405.00
1764.09,61484.00
1767.15,61271.00
1770.20,61352.00
1773.25,61360.00
1776.29,61596.00
1779.34,61911.00
1782.38,61892.00
1785.42,61872.00
1788.45,61830.00
1791.49,61851.00
1794.52,61567.00
1797.55,61527.00
1800.58,61592.00
1803.61,61438.00
1806.63,61518.00
1809.66,61676.00
1812.68,61695.00
1815.70,61780.00
1818.71,61628.00
1821.73,61699.00
1824.74,61535.00
1827.75,61447.00
1830.75,61475.00
1833.76,61260.00
1836.76,61175.00
1839.77,61294.00
1842.76,61092.00
1845.76,61064.00
1848.76,61097.00
1851.75,61158.00
1854.74,61084.00
1857.73,61141.00
1860.72,60966.00
1863.70,60762.00
1866.68,60641.00
1869.66,60717.00
1872.64,60712.00
1875.62,60628.00
1878.59,60495.00
1881.56,60561.00
1884.53,60738.00
1887.50,60656.00
1890.46,60672.00
1893.43,60544.00
1896.39,60475.00
1899.35,60422.00
1902.31,60314.00
1905.26,60392.00
1908.21,60300.00
1911.16,60487.00
1914.11,60519.00
1917.06,60571.00
1920.00,60555.00
1922.95,60711.00
1925.89,60706.00
1928.82,60679.00
1931.76,60658.00
1934.70,60669.00
1937.63,60422.00
1940.56,60350.00
1943.48,60559.00
1946.41,60717.00
1949.33,60943.00
1952.26,61187.00
1955.18,61098.00
1958.09,60885.00
1961.01,60883.00
1963.92,60706.00
1966.83,60534.00
1969.74,60526.00
1972.65,60272.00
1975.55,60534.00
1978.46,60793.00
1981.36,60909.00
1984.26,60942.00
1987.15,61059.00
1990.05,60985.00
1992.94,60664.00
1995.83,60577.00
1998.72,60251.00
2001.61,59899.00
2004.49,59898.00
2007.37,60148.00
2010.25,60299.00
2013.13,60390.00
2016.01,60521.00
2018.88,60757.00
2021.75,60571.00
2024.63,60485.00
2027.49,60360.00
2030.36,60246.00
2033.22,59891.00
2036.08,59973.00
2038.94,60188.00
2041.80,60175.00
2044.66,60266.00
2047.51,60350.00
2050.36,60478.00
2053.21,60542.00
2056.06,60373.00
2058.91,60145.00
2061.75,59884.00
2064.59,59789.00
2067.43,59697.00
2070.27,59707.00
2073.10,59781.00
2075.94,59804.00
2078.77,60158.00
2081.60,60295.00
2084.43,60191.00
2087.25,60139.00
2090.07,59768.00
2092.89,59684.00
2095.71,59463.00
2098.53,59256.00
2101.35,59199.00
2104.16,59395.00
2106.97,59548.00
2109.78,59608.00
2112.59,59606.00
2115.39,59621.00
2118.19,59305.00
2121.00,59177.00
2123.79,59102.00
2126.59,58758.00
2129.39,58597.00
2132.18,58581.00
2134.97,58621.00
2137.76,58466.00
2140.55,58640.00
2143.33,58620.00
2146.11,58672.00
2148.90,58590.00
2151.67,58550.00
2154.45,58238.00
2157.23,57968.00
2160.00,58090.00
2162.77,57734.00
2165.54,57925.00
2168.31,57890.00
2171.07,58126.00
2173.83,58322.00
2176.59,58385.00
2179.35,58575.00
2182.11,58362.00
2184.87,58337.00
2187.62,58155.00
2190.37,58090.00
2193.12,57940.00
2195.87,57999.00
2198.61,57835.00
2201.35,58126.00
2204.09,58149.00
2206.83,58111.00
2209.57,58228.00
2212.31,58050.00
2215.04,58058.00
2217.77,58191.00
2220.50,58117.00
2223.23,58091.00
2225.95,57916.00
2228.68,57985.00
2231.40,57920.00
2234.12,57938.00
2236.83,57820.00
2239.55,58004.00
2242.26,58153.00
2244.97,57913.00
2247.68,58056.00
2250.39,57736.00
2253.10,57478.00
2255.80,57761.00
2258.50,57639.00
2261.20,57538.00
2263.90,57451.00
2266.59,57405.00
2269.29,57574.00
2271.98,57599.00
2274.67,57535.00
2277.36,57213.00
2280.04,57440.00
2282.73,57236.00
2285.41,56960.00
2288.09,56787.00
2290.77,56890.00
2293.44,56905.00
2296.12,56943.00
2298.79,56972.00
2301.46,57005.00
2304.13,57006.00
2306.80,56909.00
2309.46,56935.00
2312.12,56753.00
2314.78,56572.00
2317.44,56513.00
2320.10,56393.00
2322.75,56528.00
2325.41,56525.00
2328.06,56404.00
2330.71,56535.00
2333.35,56396.00
2336.00,56343.00
2338.64,56446.00
2341.28,56258.00
2343.92,56163.00
2346.56,56145.00
2349.19,55820.00
2351.83,55858.00
2354.46,55764.00
2357.09,55676.00
2359.72,55449.00
2362.34,55565.00
2364.97,55545.00
2367.59,55395.00
2370.21,55425.00
2372.83,55315.00
2375.44,55421.00
2378.06,55543.00
2380.67,54924.00
2383.28,55183.00
2385.89,54990.00
2388.49,55042.00
2391.10,54993.00
2393.70,55008.00
2396.30,55108.00
2398.90,54946.00
2401.50,54843.00
2404.09,54730.00
2406.68,54696.00
2409.28,54597.00
2411.87,54628.00
2414.45,54400.00
2417.04,54234.00
2419.62,54293.00
2422.20,54109.00
2424.78,54012.00
2427.36,54253.00
2429.94,53796.00
2432.51,53985.00
2435.08,53971.00
2437.65,53783.00
2440.22,53723.00
2442.79,53720.00
2445.35,53486.00
2447.92,53515.00
2450.48,53264.00
2453.03,53184.00
2455.59,53308.00
2458.15,53232.00
2460.70,53282.00
2463.25,53248.00
2465.80,53201.00
2468.35,53083.00
2470.89,53001.00
2473.44,52805.00
2475.98,52984.00
2478.52,52665.00
2481.06,52429.00
2483.59,52480.00
2486.13,52579.00
2488.66,52267.00
2491.19,52267.00
2493.72,52203.00
2496.25,52332.00
2498.77,52164.00
2501.29,52027.00
2503.82,51922.00
2506.33,51744.00
2508.85,51422.00
2511.37,51459.00
2513.88,51393.00
2516.39,51272.00
2518.90,51061.00
2521.41,51084.00
2523.92,51179.00
2526.42,51093.00
2528.92,51213.00
2531.42,51162.00
2533.92,50620.00
2536.42,50519.00
2538.91,50477.00
2541.41,50593.00
2543.90,50675.00
2546.39,50517.00
2548.88,50470.00
2551.36,50564.00
2553.84,50601.00
2556.33,50557.00
2558.81,50456.00
2561.28,50306.00
2563.76,50364.00
2566.24,50239.00
2568.71,49994.00
2571.18,50086.00
2573.65,50161.00
2576.11,49940.00
2578.58,50070.00
2581.04,50093.00
2583.50,50133.00
2585.96,49849.00
2588.42,49900.00
2590.88,49944.00
2593.33,49741.00
2595.78,49800.00
2598.23,49741.00
2600.68,49577.00
2603.13,49647.00
2605.58,49585.00
2608.02,49566.00
2610.46,49633.00
2612.90,49577.00
2615.34,49384.00
2617.77,49294.00
2620.21,49464.00
2622.64,49296.00
2625.07,49094.00
2627.50,49153.00
2629.92,49077.00
2632.35,48843.00
2634.77,48902.00
2637.19,48997.00
2639.61,48833.00
2642.03,48791.00
2644.44,48946.00
2646.86,48493.00
2649.27,48289.00
2651.68,48321.00
2654.09,48135.00
2656.49,47793.00
2658.90,48040.00
2661.30,48187.00
2663.70,48150.00
2666.10,48076.00
2668.50,48025.00
2670.89,47747.00
2673.29,47963.00
2675.68,47627.00
2678.07,47367.00
2680.46,47444.00
2682.84,47351.00
2685.23,47184.00
2687.61,47324.00
2689.99,47249.00
2692.37,47179.00
2694.75,47254.00
2697.12,47097.00
2699.50,47159.00
2701.87,46729.00
2704.24,46845.00
2706.61,46493.00
2708.97,46510.00
2711.34,46752.00
2713.70,46246.00
2716.06,46400.00
2718.42,46471.00
2720.78,46430.00
2723.13,46434.00
2725.49,46282.00
2727.84,46343.00
2730.19,46187.00
2732.54,46060.00
2734.88,45993.00
2737.23,45803.00
2739.57,45835.00
2741.91,45749.00
2744.25,45489.00
2746.59,45496.00
2748.93,45496.00
2751.26,45544.00
2753.59,45213.00
2755.92,45286.00
2758.25,45304.00
2760.58,45232.00
2762.90,45114.00
2765.23,45030.00
2767.55,45148.00
2769.87,44909.00
2772.18,44781.00
2774.50,44785.00
2776.81,44787.00
2779.13,44578.00
2781.44,44741.00
2783.75,44632.00
2786.05,44591.00
2788.36,44570.00
2790.66,44437.00
2792.96,44517.00
2795.26,44129.00
2797.56,44359.00
2799.86,44342.00
2802.15,44458.00
2804.45,44444.00
2806.74,44353.00
2809.03,44467.00
2811.32,44437.00
2813.60,44374.00
2815.89,44266.00
2818.17,44142.00
2820.45,43922.00
2822.73,44184.00
2825.00,44057.00
2827.28,43986.00
2829.55,43882.00
2831.82,43984.00
2834.09,43927.00
2836.36,43948.00
2838.63,43837.00
2840.89,43725.00
2843.16,43598.00
2845.42,43575.00
2847.68,43531.00
2849.93,43421.00
2852.19,43554.00
2854.44,43288.00
2856.70,43545.00
2858.95,43520.00
2861.20,43600.00
2863.44,43657.00
2865.69,43649.00
2867.93,43623.00
2870.17,43598.00
2872.41,43733.00
2874.65,43554.00
2876.89,43631.00
2879.12,43813.00
2881.35,44064.00
2883.59,44049.00
2885.82,44732.00
2888.04,45232.00
2890.27,45913.00
2892.49,46095.00
2894.72,46627.00
2896.94,46720.00
2899.16,46975.00
2901.37,46982.00
2903.59,47056.00
2905.80,47358.00
2908.01,47654.00
2910.22,48308.00
2912.43,48754.00
2914.64,49125.00
2916.84,49111.00
2919.05,48483.00
2921.25,47910.00
2923.45,47133.00
2925.65,46533.00
2927.84,46381.00
2930.04,46219.00
2932.23,46162.00
2934.42,46286.00
2936.61,46450.00
2938.80,47037.00
2940.99,47622.00
2943.17,47880.00
2945.35,47544.00
2947.53,46870.00
2949.71,45704.00
2951.89,44677.00
2954.06,43820.00
2956.24,43122.00
2958.41,42765.00
2960.58,42352.00
2962.75,42396.00
2964.92,42447.00
2967.08,42357.00
2969.25,42238.00
2971.41,42150.00
2973.57,42011.00
2975.73,41804.00
2977.88,41572.00
2980.04,41603.00
2982.19,41496.00
2984.34,41854.00
2986.49,41838.00
2988.64,42240.00
2990.79,42305.00
2992.93,42327.00
2995.07,41838.00
2997.21,41483.00
2999.35,40885.00
3001.49,40092.00
3003.63,39284.00
3005.76,38760.00
3007.89,38317.00
3010.03,38572.00
3012.15,38721.00
3014.28,39070.00
3016.41,38897.00
3018.53,38730.00
3020.65,38277.00
3022.77,37714.00
3024.89,37267.00
3027.01,36620.00
3029.13,36057.00
3031.24,36014.00
3033.35,35885.00
3035.46,35915.00
3037.57,35753.00
3039.68,35787.00
3041.78,35558.00
3043.89,35517.00
3045.99,35248.00
3048.09,34929.00
3050.19,34883.00
3052.29,34565.00
3054.38,34714.00
3056.47,34575.00
3058.57,34514.00
3060.66,34502.00
3062.74,34287.00
3064.83,34334.00
3066.92,34189.00
3069.00,33931.00
3071.08,34005.00
3073.16,33861.00
3075.24,33588.00
3077.31,33348.00
3079.39,33422.00
3081.46,33135.00
3083.53,33270.00
3085.60,33047.00
3087.67,33065.00
3089.74,33080.00
3091.80,32909.00
3093.87,32644.00
3095.93,32511.00
3097.99,32318.00
3100.05,32085.00
3102.10,32040.00
3104.16,31918.00
3106.21,31986.00
3108.26,32018.00
3110.31,32034.00
3112.36,31897.00
3114.40,31646.00
3116.45,31568.00
3118.49,31592.00
3120.53,31271.00
3122.57,31160.00
3124.61,30824.00
3126.65,30892.00
3128.68,30828.00
3130.71,30791.00
3132.74,30816.00
3134.77,30723.00
3136.80,30639.00
3138.83,30504.00
3140.85,30372.00
3142.88,30214.00
3144.90,29913.00
3146.92,29711.00
3148.93,29690.00
3150.95,29513.00
3152.96,29540.00
3154.98,29515.00
3156.99,29452.00
3159.00,29359.00
3161.01,29224.00
3163.01,29144.00
3165.02,28901.00
3167.02,28680.00
3169.02,28508.00
3171.02,28463.00
3173.02,28463.00
3175.01,28218.00
3177.01,28080.00
3179.00,28129.00
3180.99,28041.00
3182.98,28025.00
3184.97,27854.00
3186.96,27982.00
3188.94,27632.00
3190.92,27456.00
3192.90,27285.00
3194.88,27221.00
3196.86,27061.00
3198.84,27140.00
3200.81,26973.00
3202.79,26802.00
