ENLIGHTEN Version,1.6.8
Measurement ID,20190528-081922-800092-WP-00391
Serial Number,WP-00391
Label,Sugar
Integration Time,1000
Timestamp,2019-05-28 08:19:22.800092
Note,
Temperature,-99
CCD C0,789.0726928710938
CCD C1,0.16069164872169495
CCD C2,5.064120159659069e-06
CCD C3,-4.444800083547307e-09
CCD Offset,0
CCD Gain,1.9
Laser Wavelength,785.0
Laser Enable,False
Laser Power,100.0
Laser Temperature,-99
Pixel Count,2048

Wavenumber,Processed
65.75,224.00
68.33,272.00
70.91,296.00
73.49,344.00
76.07,374.00
78.64,381.00
81.22,408.00
83.79,397.00
86.37,330.00
88.94,274.00
91.51,229.00
94.09,205.00
96.66,218.00
99.23,206.00
101.79,245.00
104.36,271.00
106.93,343.00
109.50,435.00
112.06,441.00
114.63,533.00
117.19,497.00
119.75,466.00
122.31,505.00
124.87,527.00
127.43,610.00
129.99,674.00
132.55,699.00
135.11,721.00
137.66,778.00
140.22,853.00
142.78,898.00
145.33,929.00
147.88,1006.00
150.43,1061.00
152.98,1201.00
155.53,1325.00
158.08,1454.00
160.63,1485.00
163.18,1526.00
165.73,1581.00
168.27,1608.00
170.82,1710.00
173.36,1771.00
175.90,1836.00
178.45,1889.00
180.99,1967.00
183.53,2045.00
186.07,2206.00
188.61,2419.00
191.14,2641.00
193.68,2758.00
196.22,2874.00
198.75,2893.00
201.29,2818.00
203.82,2808.00
206.35,2846.00
208.88,2865.00
211.41,3016.00
213.94,3271.00
216.47,3417.00
219.00,3774.00
221.53,4264.00
224.05,4752.00
226.58,4918.00
229.10,4974.00
231.63,4765.00
234.15,4621.00
236.67,4395.00
239.19,3984.00
241.71,3905.00
244.23,3760.00
246.75,3840.00
249.27,4137.00
251.78,4238.00
254.30,4378.00
256.81,4329.00
259.33,4171.00
261.84,4019.00
264.35,3800.00
266.86,3824.00
269.38,3818.00
271.88,3859.00
274.39,4013.00
276.90,4384.00
279.41,4887.00
281.91,5016.00
284.42,4923.00
286.92,4847.00
289.43,4884.00
291.93,5054.00
294.43,5054.00
296.93,5090.00
299.43,5080.00
301.93,4999.00
304.43,5084.00
306.92,5236.00
309.42,5419.00
311.91,5392.00
314.41,5283.00
316.90,5057.00
319.39,4771.00
321.89,4389.00
324.38,4235.00
326.87,4123.00
329.36,4036.00
331.84,4019.00
334.33,4041.00
336.82,4140.00
339.30,4262.00
341.79,4378.00
344.27,4498.00
346.75,4467.00
349.24,4431.00
351.72,4374.00
354.20,4451.00
356.68,4623.00
359.16,4914.00
361.63,5342.00
364.11,5498.00
366.59,5354.00
369.06,4937.00
371.53,4638.00
374.01,4446.00
376.48,4285.00
378.95,4181.00
381.42,4108.00
383.89,4302.00
386.36,4404.00
388.83,4729.00
391.29,5322.00
393.76,6382.00
396.23,8186.00
398.69,10165.00
401.15,11096.00
403.62,10145.00
406.08,8404.00
408.54,6916.00
411.00,6152.00
413.46,5880.00
415.91,5899.00
418.37,5703.00
420.83,5291.00
423.28,4799.00
425.74,4596.00
428.19,4474.00
430.64,4440.00
433.10,4700.00
435.55,5274.00
438.00,6041.00
440.45,6677.00
442.90,6766.00
445.34,6195.00
447.79,5412.00
450.24,4718.00
452.68,4300.00
455.12,3986.00
457.57,3831.00
460.01,3786.00
462.45,3762.00
464.89,3726.00
467.33,3803.00
469.77,3927.00
472.21,4040.00
474.64,4072.00
477.08,3977.00
479.52,3938.00
481.95,3914.00
484.38,3993.00
486.82,4133.00
489.25,4218.00
491.68,4469.00
494.11,4614.00
496.54,4682.00
498.96,4605.00
501.39,4438.00
503.82,4285.00
506.24,4131.00
508.67,4085.00
511.09,4100.00
513.52,4235.00
515.94,4646.00
518.36,5530.00
520.78,6905.00
523.20,7933.00
525.62,8390.00
528.03,8150.00
530.45,7719.00
532.87,7715.00
535.28,7871.00
537.69,8070.00
540.11,8018.00
542.52,8070.00
544.93,8171.00
547.34,8260.00
549.75,8431.00
552.16,8285.00
554.57,7967.00
556.98,7269.00
559.38,6459.00
561.79,5622.00
564.19,5067.00
566.59,4769.00
569.00,4461.00
571.40,4417.00
573.80,4457.00
576.20,4617.00
578.60,4900.00
581.00,5312.00
583.39,5676.00
585.79,5490.00
588.19,5117.00
590.58,4560.00
592.98,4216.00
595.37,3948.00
597.76,3918.00
600.15,3792.00
602.54,3732.00
604.93,3666.00
607.32,3709.00
609.71,3683.00
612.09,3762.00
614.48,3712.00
616.87,3784.00
619.25,3839.00
621.63,3890.00
624.02,4006.00
626.40,4083.00
628.78,4459.00
631.16,4773.00
633.54,5301.00
635.91,5962.00
638.29,6497.00
640.67,6820.00
643.04,6716.00
645.42,6229.00
647.79,5642.00
650.16,4913.00
652.54,4479.00
654.91,4038.00
657.28,3831.00
659.65,3652.00
662.02,3491.00
664.38,3478.00
666.75,3440.00
669.12,3474.00
671.48,3448.00
673.84,3505.00
676.21,3645.00
678.57,3793.00
680.93,3860.00
683.29,3693.00
685.65,3653.00
688.01,3615.00
690.37,3675.00
692.73,3780.00
695.08,3757.00
697.44,3905.00
699.79,3991.00
702.14,3926.00
704.50,3879.00
706.85,3746.00
709.20,3791.00
711.55,3629.00
713.90,3644.00
716.25,3552.00
718.60,3495.00
720.94,3542.00
723.29,3575.00
725.63,3598.00
727.98,3695.00
730.32,3823.00
732.66,4093.00
735.00,4277.00
737.34,4454.00
739.68,4427.00
742.02,4279.00
744.36,4109.00
746.70,3913.00
749.03,3795.00
751.37,3689.00
753.70,3621.00
756.04,3474.00
758.37,3469.00
760.70,3299.00
763.03,3224.00
765.36,3193.00
767.69,3148.00
770.02,3176.00
772.35,3105.00
774.67,3094.00
777.00,3054.00
779.32,3009.00
781.65,3026.00
783.97,3003.00
786.29,2952.00
788.61,3002.00
790.93,2954.00
793.25,2931.00
795.57,2882.00
797.89,2920.00
800.21,2872.00
802.52,3000.00
804.84,2933.00
807.15,2889.00
809.47,2931.00
811.78,2950.00
814.09,2945.00
816.40,2954.00
818.71,3030.00
821.02,3016.00
823.33,3028.00
825.64,3041.00
827.94,3167.00
830.25,3250.00
832.55,3275.00
834.86,3500.00
837.16,3765.00
839.46,4218.00
841.77,5289.00
844.07,6976.00
846.37,9483.00
848.66,11541.00
850.96,11536.00
853.26,10011.00
855.56,7831.00
857.85,6278.00
860.15,5156.00
862.44,4555.00
864.73,4478.00
867.02,4626.00
869.31,4831.00
871.60,4882.00
873.89,4965.00
876.18,4751.00
878.47,4520.00
880.76,4144.00
883.04,3740.00
885.33,3471.00
887.61,3299.00
889.89,3302.00
892.18,3205.00
894.46,3109.00
896.74,3197.00
899.02,3269.00
901.30,3438.00
903.58,3743.00
905.85,4137.00
908.13,4700.00
910.40,5014.00
912.68,5236.00
914.95,5388.00
917.23,5623.00
919.50,5920.00
921.77,6001.00
924.04,5893.00
926.31,5338.00
928.58,4731.00
930.84,4253.00
933.11,3897.00
935.38,3875.00
937.64,4034.00
939.91,4401.00
942.17,4716.00
944.43,4854.00
946.69,4450.00
948.95,4139.00
951.21,3667.00
953.47,3341.00
955.73,3229.00
957.99,3086.00
960.25,2981.00
962.50,2940.00
964.76,2872.00
967.01,2907.00
969.26,2884.00
971.51,2935.00
973.77,2920.00
976.02,2874.00
978.27,2908.00
980.51,3002.00
982.76,3053.00
985.01,3102.00
987.26,3381.00
989.50,3457.00
991.75,3601.00
993.99,3636.00
996.23,3545.00
998.47,3556.00
1000.71,3624.00
1002.95,3740.00
1005.19,4042.00
1007.43,4379.00
1009.67,4744.00
1011.91,5113.00
1014.14,5314.00
1016.38,5366.00
1018.61,5001.00
1020.84,4481.00
1023.08,4129.00
1025.31,3947.00
1027.54,4060.00
1029.77,4334.00
1032.00,5160.00
1034.23,6504.00
1036.45,7863.00
1038.68,8581.00
1040.91,8414.00
1043.13,7875.00
1045.35,7088.00
1047.58,6549.00
1049.80,5955.00
1052.02,5627.00
1054.24,5413.00
1056.46,5063.00
1058.68,4881.00
1060.90,4646.00
1063.11,4598.00
1065.33,4572.00
1067.55,4638.00
1069.76,4763.00
1071.97,4805.00
1074.19,4953.00
1076.40,5097.00
1078.61,5376.00
1080.82,5503.00
1083.03,5735.00
1085.24,5879.00
1087.44,5995.00
1089.65,5935.00
1091.86,5747.00
1094.06,5496.00
1096.27,5157.00
1098.47,5135.00
1100.67,5283.00
1102.87,5528.00
1105.07,5720.00
1107.27,5713.00
1109.47,5695.00
1111.67,5788.00
1113.87,6124.00
1116.07,6796.00
1118.26,7367.00
1120.46,8190.00
1122.65,9027.00
1124.84,9660.00
1127.04,9716.00
1129.23,9211.00
1131.42,8527.00
1133.61,7533.00
1135.80,6438.00
1137.98,5735.00
1140.17,4885.00
1142.36,4439.00
1144.54,4004.00
1146.73,3829.00
1148.91,3816.00
1151.09,3688.00
1153.28,3890.00
1155.46,4325.00
1157.64,4866.00
1159.82,5449.00
1162.00,5775.00
1164.17,5631.00
1166.35,5308.00
1168.53,5056.00
1170.70,4870.00
1172.88,4763.00
1175.05,4471.00
1177.22,4099.00
1179.40,3783.00
1181.57,3542.00
1183.74,3370.00
1185.91,3280.00
1188.07,3224.00
1190.24,3239.00
1192.41,3178.00
1194.57,3298.00
1196.74,3351.00
1198.90,3478.00
1201.07,3687.00
1203.23,3865.00
1205.39,4112.00
1207.55,4262.00
1209.71,4229.00
1211.87,4262.00
1214.03,4104.00
1216.19,3943.00
1218.34,3833.00
1220.50,3846.00
1222.66,3833.00
1224.81,3999.00
1226.96,4215.00
1229.11,4648.00
1231.27,5130.00
1233.42,5705.00
1235.57,6283.00
1237.72,6692.00
1239.86,6780.00
1242.01,6544.00
1244.16,6033.00
1246.30,5437.00
1248.45,4881.00
1250.59,4530.00
1252.74,4391.00
1254.88,4325.00
1257.02,4510.00
1259.16,4642.00
1261.30,4796.00
1263.44,4881.00
1265.58,4807.00
1267.71,4604.00
1269.85,4490.00
1271.99,4451.00
1274.12,4518.00
1276.25,4562.00
1278.39,4541.00
1280.52,4485.00
1282.65,4308.00
1284.78,4109.00
1286.91,4065.00
1289.04,3926.00
1291.17,3866.00
1293.30,3692.00
1295.42,3749.00
1297.55,3856.00
1299.67,3919.00
1301.80,3903.00
1303.92,4023.00
1306.04,3979.00
1308.16,3952.00
1310.28,3939.00
1312.40,4007.00
1314.52,4061.00
1316.64,4158.00
1318.76,4433.00
1320.87,4685.00
1322.99,5012.00
1325.10,5232.00
1327.22,5392.00
1329.33,5374.00
1331.44,5308.00
1333.55,5137.00
1335.66,5051.00
1337.77,5139.00
1339.88,5308.00
1341.99,5664.00
1344.10,6077.00
1346.20,6530.00
1348.31,6874.00
1350.41,6794.00
1352.52,6596.00
1354.62,6261.00
1356.72,5984.00
1358.82,5844.00
1360.92,6012.00
1363.02,6291.00
1365.12,6663.00
1367.22,6806.00
1369.31,6776.00
1371.41,6616.00
1373.51,6453.00
1375.60,6359.00
1377.69,6350.00
1379.79,6261.00
1381.88,5906.00
1383.97,5650.00
1386.06,5334.00
1388.15,5035.00
1390.24,4911.00
1392.33,4742.00
1394.41,4596.00
1396.50,4575.00
1398.59,4471.00
1400.67,4498.00
1402.75,4594.00
1404.84,4731.00
1406.92,4811.00
1409.00,4894.00
1411.08,4877.00
1413.16,4957.00
1415.24,4953.00
1417.32,5052.00
1419.39,5101.00
1421.47,5145.00
1423.54,5236.00
1425.62,5295.00
1427.69,5300.00
1429.77,5304.00
1431.84,5266.00
1433.91,5245.00
1435.98,5136.00
1438.05,5177.00
1440.12,5075.00
1442.19,5019.00
1444.25,4949.00
1446.32,4805.00
1448.38,4911.00
1450.45,4898.00
1452.51,5262.00
1454.58,5691.00
1456.64,6559.00
1458.70,7656.00
1460.76,8542.00
1462.82,8674.00
1464.88,8079.00
1466.94,7220.00
1468.99,6183.00
1471.05,5737.00
1473.10,5305.00
1475.16,5031.00
1477.21,4691.00
1479.27,4345.00
1481.32,3996.00
1483.37,3774.00
1485.42,3673.00
1487.47,3494.00
1489.52,3410.00
1491.57,3282.00
1493.61,3246.00
1495.66,3212.00
1497.71,3242.00
1499.75,3260.00
1501.79,3250.00
1503.84,3136.00
1505.88,3200.00
1507.92,3125.00
1509.96,3224.00
1512.00,3191.00
1514.04,3141.00
1516.08,3061.00
1518.12,3043.00
1520.15,3089.00
1522.19,3110.00
1524.22,3125.00
1526.26,3060.00
1528.29,3023.00
1530.32,3033.00
1532.35,3039.00
1534.38,3018.00
1536.41,3085.00
1538.44,3041.00
1540.47,2998.00
1542.50,2970.00
1544.53,2983.00
1546.55,2958.00
1548.58,2992.00
1550.60,2919.00
1552.62,2983.00
1554.65,2922.00
1556.67,2863.00
1558.69,2863.00
1560.71,2904.00
1562.73,2891.00
1564.75,2865.00
1566.76,2948.00
1568.78,2821.00
1570.80,2924.00
1572.81,2867.00
1574.83,2904.00
1576.84,2835.00
1578.85,2863.00
1580.86,2809.00
1582.88,2849.00
1584.89,2817.00
1586.89,2808.00
1588.90,2789.00
1590.91,2770.00
1592.92,2760.00
1594.92,2713.00
1596.93,2802.00
1598.93,2756.00
1600.94,2799.00
1602.94,2749.00
1604.94,2747.00
1606.94,2751.00
1608.94,2761.00
1610.94,2675.00
1612.94,2783.00
1614.94,2696.00
1616.94,2734.00
1618.93,2656.00
1620.93,2731.00
1622.92,2773.00
1624.92,2629.00
1626.91,2660.00
1628.90,2696.00
1630.89,2714.00
1632.89,2657.00
1634.88,2622.00
1636.86,2718.00
1638.85,2717.00
1640.84,2644.00
1642.83,2669.00
1644.81,2736.00
1646.80,2650.00
1648.78,2607.00
1650.76,2637.00
1652.75,2572.00
1654.73,2686.00
1656.71,2626.00
1658.69,2563.00
1660.67,2637.00
1662.65,2624.00
1664.62,2588.00
1666.60,2579.00
1668.58,2633.00
1670.55,2650.00
1672.53,2605.00
1674.50,2593.00
1676.47,2549.00
1678.45,2552.00
1680.42,2549.00
1682.39,2469.00
1684.36,2499.00
1686.32,2502.00
1688.29,2453.00
1690.26,2523.00
1692.23,2432.00
1694.19,2456.00
1696.16,2405.00
1698.12,2477.00
1700.08,2468.00
1702.05,2384.00
1704.01,2394.00
1705.97,2392.00
1707.93,2377.00
1709.89,2388.00
1711.84,2373.00
1713.80,2354.00
1715.76,2308.00
1717.71,2398.00
1719.67,2371.00
1721.62,2333.00
1723.58,2333.00
1725.53,2414.00
1727.48,2244.00
1729.43,2293.00
1731.38,2263.00
1733.33,2297.00
1735.28,2273.00
1737.23,2280.00
1739.17,2296.00
1741.12,2260.00
1743.06,2232.00
1745.01,2166.00
1746.95,2260.00
1748.90,2249.00
1750.84,2229.00
1752.78,2208.00
1754.72,2189.00
1756.66,2183.00
1758.60,2153.00
1760.54,2232.00
1762.47,2151.00
1764.41,2177.00
1766.35,2156.00
1768.28,2149.00
1770.21,2176.00
1772.15,2151.00
1774.08,2101.00
1776.01,2086.00
1777.94,2120.00
1779.87,2119.00
1781.80,2101.00
1783.73,2108.00
1785.66,2102.00
1787.58,2086.00
1789.51,1986.00
1791.44,2079.00
1793.36,1995.00
1795.28,1995.00
1797.21,2066.00
1799.13,1966.00
1801.05,2046.00
1802.97,2054.00
1804.89,2012.00
1806.81,2030.00
1808.73,2017.00
1810.64,2026.00
1812.56,1980.00
1814.48,1976.00
1816.39,2005.00
1818.30,2017.00
1820.22,1910.00
1822.13,2028.00
1824.04,2001.00
1825.95,1971.00
1827.86,1980.00
1829.77,1925.00
1831.68,1965.00
1833.59,1963.00
1835.49,1947.00
1837.40,1929.00
1839.31,1942.00
1841.21,1886.00
1843.11,1929.00
1845.02,1956.00
1846.92,1967.00
1848.82,1898.00
1850.72,1904.00
1852.62,1874.00
1854.52,1895.00
1856.42,1838.00
1858.31,1916.00
1860.21,1868.00
1862.11,1825.00
1864.00,1847.00
1865.89,1825.00
1867.79,1822.00
1869.68,1818.00
1871.57,1790.00
1873.46,1811.00
1875.35,1863.00
1877.24,1813.00
1879.13,1794.00
1881.02,1765.00
1882.91,1801.00
1884.79,1794.00
1886.68,1762.00
1888.56,1821.00
1890.45,1762.00
1892.33,1779.00
1894.21,1707.00
1896.09,1807.00
1897.97,1720.00
1899.85,1751.00
1901.73,1713.00
1903.61,1747.00
1905.49,1772.00
1907.36,1735.00
1909.24,1739.00
1911.11,1754.00
1912.99,1661.00
1914.86,1718.00
1916.74,1627.00
1918.61,1714.00
1920.48,1737.00
1922.35,1638.00
1924.22,1756.00
1926.09,1651.00
1927.95,1665.00
1929.82,1663.00
1931.69,1695.00
1933.55,1670.00
1935.42,1651.00
1937.28,1633.00
1939.15,1630.00
1941.01,1642.00
1942.87,1625.00
1944.73,1653.00
1946.59,1655.00
1948.45,1642.00
1950.31,1561.00
1952.17,1529.00
1954.02,1627.00
1955.88,1593.00
1957.73,1603.00
1959.59,1593.00
1961.44,1547.00
1963.30,1522.00
1965.15,1517.00
1967.00,1584.00
1968.85,1577.00
1970.70,1593.00
1972.55,1555.00
1974.40,1594.00
1976.25,1555.00
1978.09,1523.00
1979.94,1541.00
1981.78,1533.00
1983.63,1481.00
1985.47,1541.00
1987.31,1505.00
1989.16,1456.00
1991.00,1450.00
1992.84,1464.00
1994.68,1529.00
1996.52,1444.00
1998.35,1466.00
2000.19,1507.00
2002.03,1433.00
2003.86,1462.00
2005.70,1448.00
2007.53,1411.00
2009.37,1385.00
2011.20,1397.00
2013.03,1408.00
2014.86,1410.00
2016.69,1350.00
2018.52,1369.00
2020.35,1367.00
2022.18,1354.00
2024.01,1354.00
2025.83,1364.00
2027.66,1374.00
2029.48,1332.00
2031.31,1301.00
2033.13,1268.00
2034.95,1266.00
2036.77,1289.00
2038.59,1236.00
2040.42,1278.00
2042.23,1290.00
2044.05,1259.00
2045.87,1234.00
2047.69,1251.00
2049.50,1202.00
2051.32,1281.00
2053.13,1266.00
2054.95,1268.00
2056.76,1234.00
2058.57,1222.00
2060.39,1217.00
2062.20,1166.00
2064.01,1224.00
2065.82,1217.00
2067.62,1209.00
2069.43,1187.00
2071.24,1253.00
2073.05,1158.00
2074.85,1190.00
2076.66,1211.00
2078.46,1238.00
2080.26,1205.00
2082.06,1190.00
2083.87,1178.00
2085.67,1183.00
2087.47,1167.00
2089.27,1125.00
2091.06,1160.00
2092.86,1120.00
2094.66,1187.00
2096.45,1190.00
2098.25,1144.00
2100.04,1160.00
2101.84,1118.00
2103.63,1145.00
2105.42,1123.00
2107.22,1142.00
2109.01,1148.00
2110.80,1143.00
2112.59,1158.00
2114.37,1148.00
2116.16,1148.00
2117.95,1073.00
2119.73,1095.00
2121.52,1078.00
2123.30,1073.00
2125.09,1090.00
2126.87,1065.00
2128.65,1076.00
2130.43,1086.00
2132.22,1047.00
2134.00,1074.00
2135.77,1081.00
2137.55,1029.00
2139.33,1050.00
2141.11,1016.00
2142.88,1071.00
2144.66,1002.00
2146.43,1029.00
2148.21,1069.00
2149.98,1003.00
2151.75,1038.00
2153.52,991.00
2155.29,1023.00
2157.06,959.00
2158.83,1017.00
2160.60,1042.00
2162.37,1037.00
2164.14,1038.00
2165.90,1017.00
2167.67,943.00
2169.43,1028.00
2171.20,972.00
2172.96,957.00
2174.72,947.00
2176.48,991.00
2178.24,972.00
2180.00,980.00
2181.76,1013.00
2183.52,983.00
2185.28,991.00
2187.04,974.00
2188.79,989.00
2190.55,975.00
2192.30,901.00
2194.06,965.00
2195.81,954.00
2197.56,953.00
2199.31,959.00
2201.06,923.00
2202.81,966.00
2204.56,976.00
2206.31,953.00
2208.06,898.00
2209.81,964.00
2211.55,898.00
2213.30,908.00
2215.04,968.00
2216.79,885.00
2218.53,943.00
2220.27,920.00
2222.01,947.00
2223.76,926.00
2225.50,902.00
2227.23,943.00
2228.97,902.00
2230.71,902.00
2232.45,921.00
2234.18,879.00
2235.92,908.00
2237.66,901.00
2239.39,923.00
2241.12,914.00
2242.86,888.00
2244.59,901.00
2246.32,896.00
2248.05,922.00
2249.78,890.00
2251.51,900.00
2253.23,937.00
2254.96,894.00
2256.69,907.00
2258.41,898.00
2260.14,904.00
2261.86,885.00
2263.59,848.00
2265.31,888.00
2267.03,920.00
2268.75,852.00
2270.47,869.00
2272.19,858.00
2273.91,841.00
2275.63,807.00
2277.35,803.00
2279.06,833.00
2280.78,852.00
2282.50,881.00
2284.21,841.00
2285.92,873.00
2287.64,858.00
2289.35,835.00
2291.06,809.00
2292.77,788.00
2294.48,828.00
2296.19,793.00
2297.90,818.00
2299.61,793.00
2301.31,816.00
2303.02,812.00
2304.72,773.00
2306.43,818.00
2308.13,828.00
2309.84,822.00
2311.54,793.00
2313.24,790.00
2314.94,807.00
2316.64,754.00
2318.34,791.00
2320.04,768.00
2321.74,782.00
2323.43,769.00
2325.13,775.00
2326.83,786.00
2328.52,743.00
2330.21,775.00
2331.91,759.00
2333.60,824.00
2335.29,782.00
2336.98,814.00
2338.67,811.00
2340.36,780.00
2342.05,764.00
2343.74,817.00
2345.43,782.00
2347.11,784.00
2348.80,779.00
2350.49,738.00
2352.17,752.00
2353.85,765.00
2355.54,727.00
2357.22,763.00
2358.90,750.00
2360.58,737.00
2362.26,744.00
2363.94,786.00
2365.62,765.00
2367.30,755.00
2368.97,729.00
2370.65,784.00
2372.32,735.00
2374.00,746.00
2375.67,729.00
2377.35,735.00
2379.02,721.00
2380.69,748.00
2382.36,731.00
2384.03,744.00
2385.70,727.00
2387.37,737.00
2389.04,718.00
2390.70,763.00
2392.37,719.00
2394.04,677.00
2395.70,783.00
2397.37,743.00
2399.03,695.00
2400.69,746.00
2402.35,719.00
2404.02,706.00
2405.68,712.00
2407.34,707.00
2409.00,695.00
2410.65,716.00
2412.31,721.00
2413.97,714.00
2415.62,703.00
2417.28,683.00
2418.93,717.00
2420.59,691.00
2422.24,685.00
2423.89,672.00
2425.55,691.00
2427.20,658.00
2428.85,673.00
2430.50,670.00
2432.14,687.00
2433.79,676.00
2435.44,670.00
2437.09,689.00
2438.73,699.00
2440.38,638.00
2442.02,644.00
2443.66,655.00
2445.31,681.00
2446.95,672.00
2448.59,655.00
2450.23,641.00
2451.87,676.00
2453.51,661.00
2455.15,628.00
2456.79,657.00
2458.42,659.00
2460.06,651.00
2461.70,623.00
2463.33,638.00
2464.96,646.00
2466.60,644.00
2468.23,622.00
2469.86,617.00
2471.49,604.00
2473.12,630.00
2474.75,632.00
2476.38,619.00
2478.01,632.00
2479.64,593.00
2481.26,604.00
2482.89,640.00
2484.51,613.00
2486.14,607.00
2487.76,564.00
2489.39,612.00
2491.01,591.00
2492.63,613.00
2494.25,558.00
2495.87,600.00
2497.49,591.00
2499.11,573.00
2500.73,608.00
2502.34,566.00
2503.96,590.00
2505.57,553.00
2507.19,560.00
2508.80,556.00
2510.42,605.00
2512.03,565.00
2513.64,550.00
2515.25,570.00
2516.86,537.00
2518.47,530.00
2520.08,543.00
2521.69,560.00
2523.30,505.00
2524.91,522.00
2526.51,493.00
