ENLIGHTEN Version,1.6.8
Measurement ID,20190528-122101-698337-WP-00352
Serial Number,WP-00352
Label,Sulfur
Integration Time,20
Timestamp,2019-05-28 12:21:01.698337
Note,
Temperature,-99
CCD C0,537.1995239257812
CCD C1,0.11956000328063965
CCD C2,-1.4522999663313385e-05
CCD C3,-2.756999961661677e-09
CCD Offset,0
CCD Gain,1.9
Laser Wavelength,532.0
Laser Enable,False
Laser Power,100.0
Laser Temperature,-99
Pixel Count,1024

Wavenumber,Processed
181.94,28.00
186.08,30.00
190.22,29.00
194.35,34.00
198.48,34.00
202.61,34.00
206.74,34.00
210.87,23.00
214.99,31.00
219.11,38.00
223.22,43.00
227.34,43.00
231.45,30.00
235.55,27.00
239.66,38.00
243.76,40.00
247.86,57.00
251.96,34.00
256.05,57.00
260.14,36.00
264.23,48.00
268.31,35.00
272.39,57.00
276.47,43.00
280.55,45.00
284.62,53.00
288.70,57.00
292.76,46.00
296.83,46.00
300.89,64.00
304.95,74.00
309.01,74.00
313.06,65.00
317.11,81.00
321.16,88.00
325.21,92.00
329.25,108.00
333.29,107.00
337.33,139.00
341.36,154.00
345.40,183.00
349.42,217.00
353.45,295.00
357.47,379.00
361.50,490.00
365.51,615.00
369.53,833.00
373.54,1145.00
377.55,1490.00
381.56,2031.00
385.56,2612.00
389.56,3373.00
393.56,4326.00
397.56,5188.00
401.55,6339.00
405.54,7366.00
409.53,8532.00
413.52,9662.00
417.50,10985.00
421.48,12282.00
425.45,13758.00
429.43,15269.00
433.40,16520.00
437.37,17384.00
441.33,17331.00
445.30,16522.00
449.26,15491.00
453.22,15814.00
457.17,18612.00
461.12,24649.00
465.07,33803.00
469.02,44199.00
472.96,52526.00
476.91,54301.00
480.84,48666.00
484.78,38172.00
488.71,26222.00
492.64,17212.00
496.57,13606.00
500.50,12200.00
504.42,11682.00
508.34,11460.00
512.26,11401.00
516.17,11169.00
520.08,11262.00
523.99,11287.00
527.90,11256.00
531.80,11317.00
535.70,11234.00
539.60,11164.00
543.50,11300.00
547.39,11443.00
551.28,11511.00
555.17,11435.00
559.05,11480.00
562.94,11546.00
566.81,11481.00
570.69,11452.00
574.57,11525.00
578.44,11589.00
582.31,11532.00
586.17,11689.00
590.04,11846.00
593.90,11941.00
597.76,12011.00
601.61,11994.00
605.46,12158.00
609.31,12103.00
613.16,12209.00
617.01,12367.00
620.85,12301.00
624.69,12348.00
628.53,12478.00
632.36,12458.00
636.19,12532.00
640.02,12670.00
643.85,12838.00
647.67,12755.00
651.49,12744.00
655.31,12982.00
659.13,13031.00
662.94,13141.00
666.75,13147.00
670.56,13268.00
674.37,13412.00
678.17,13389.00
681.97,13587.00
685.77,13624.00
689.56,13746.00
693.35,13832.00
697.14,13881.00
700.93,13912.00
704.72,13982.00
708.50,13925.00
712.28,13972.00
716.05,14110.00
719.83,14237.00
723.60,14271.00
727.37,14290.00
731.14,14496.00
734.90,14476.00
738.66,14403.00
742.42,14562.00
746.18,14566.00
749.93,14621.00
753.68,14737.00
757.43,14807.00
761.17,14875.00
764.92,14996.00
768.66,15116.00
772.40,14977.00
776.13,15112.00
779.86,15071.00
783.60,15213.00
787.32,15352.00
791.05,15381.00
794.77,15506.00
798.49,15613.00
802.21,15683.00
805.92,15887.00
809.64,15786.00
813.35,16057.00
817.05,16324.00
820.76,16514.00
824.46,16606.00
828.16,16651.00
831.86,16796.00
835.55,16845.00
839.24,16908.00
842.93,16951.00
846.62,17007.00
850.30,17230.00
853.98,17401.00
857.66,17471.00
861.34,17781.00
865.02,18057.00
868.69,18322.00
872.36,18485.00
876.02,18396.00
879.69,18369.00
883.35,18134.00
887.01,18047.00
890.66,17861.00
894.32,17700.00
897.97,17673.00
901.62,17525.00
905.26,17720.00
908.91,17652.00
912.55,17595.00
916.19,17601.00
919.83,17675.00
923.46,17659.00
927.09,17762.00
930.72,17920.00
934.35,17921.00
937.97,17951.00
941.59,17940.00
945.21,17977.00
948.83,17960.00
952.44,17971.00
956.05,18027.00
959.66,18027.00
963.27,18156.00
966.87,18188.00
970.47,18305.00
974.07,18239.00
977.67,18146.00
981.26,18313.00
984.85,18357.00
988.44,18519.00
992.03,18618.00
995.61,18754.00
999.19,18812.00
1002.77,18913.00
1006.35,18995.00
1009.92,18972.00
1013.50,19026.00
1017.07,19145.00
1020.63,19145.00
1024.20,19145.00
1027.76,19157.00
1031.32,19273.00
1034.87,19333.00
1038.43,19414.00
1041.98,19469.00
1045.53,19369.00
1049.08,19567.00
1052.62,19575.00
1056.16,19699.00
1059.70,19661.00
1063.24,19712.00
1066.78,19636.00
1070.31,19733.00
1073.84,19857.00
1077.37,19835.00
1080.89,19974.00
1084.42,20093.00
1087.94,20029.00
1091.45,20237.00
1094.97,20163.00
1098.48,20233.00
1101.99,20264.00
1105.50,20397.00
1109.01,20315.00
1112.51,20309.00
1116.01,20372.00
1119.51,20654.00
1123.00,20722.00
1126.50,20705.00
1129.99,20627.00
1133.48,20865.00
1136.96,20931.00
1140.45,20989.00
1143.93,21091.00
1147.41,21084.00
1150.89,21017.00
1154.36,21217.00
1157.83,21300.00
1161.30,21298.00
1164.77,21382.00
1168.23,21497.00
1171.70,21549.00
1175.16,21529.00
1178.61,21461.00
1182.07,21666.00
1185.52,21778.00
1188.97,21690.00
1192.42,21755.00
1195.87,21811.00
1199.31,21845.00
1202.75,21890.00
1206.19,21978.00
1209.62,22009.00
1213.06,22066.00
1216.49,22088.00
1219.92,22158.00
1223.34,22179.00
1226.77,22223.00
1230.19,22130.00
1233.61,22267.00
1237.03,22326.00
1240.44,22282.00
1243.85,22387.00
1247.26,22452.00
1250.67,22461.00
1254.08,22456.00
1257.48,22692.00
1260.88,22760.00
1264.28,22671.00
1267.67,22847.00
1271.07,22933.00
1274.46,22994.00
1277.85,23064.00
1281.23,23233.00
1284.62,23120.00
1288.00,23403.00
1291.38,23407.00
1294.76,23580.00
1298.13,23622.00
1301.50,23574.00
1304.87,23646.00
1308.24,23648.00
1311.61,23795.00
1314.97,23929.00
1318.33,23930.00
1321.69,23935.00
1325.04,23972.00
1328.40,23937.00
1331.75,24118.00
1335.10,24183.00
1338.44,24291.00
1341.79,24194.00
1345.13,24202.00
1348.47,24275.00
1351.81,24200.00
1355.14,24280.00
1358.48,24342.00
1361.81,24263.00
1365.13,24295.00
1368.46,24453.00
1371.78,24430.00
1375.11,24521.00
1378.42,24378.00
1381.74,24394.00
1385.06,24388.00
1388.37,24428.00
1391.68,24508.00
1394.98,24515.00
1398.29,24628.00
1401.59,24643.00
1404.89,24592.00
1408.19,24616.00
1411.49,24743.00
1414.78,24859.00
1418.07,24984.00
1421.36,24877.00
1424.65,24873.00
1427.93,24986.00
1431.21,25094.00
1434.49,24997.00
1437.77,25010.00
1441.05,24994.00
1444.32,25120.00
1447.59,25137.00
1450.86,25155.00
1454.12,25250.00
1457.39,25393.00
1460.65,25261.00
1463.91,25493.00
1467.17,25351.00
1470.42,25469.00
1473.67,25436.00
1476.92,25371.00
1480.17,25641.00
1483.42,25767.00
1486.66,25738.00
1489.90,25752.00
1493.14,25887.00
1496.38,25893.00
1499.61,25741.00
1502.85,25873.00
1506.08,26005.00
1509.30,25948.00
1512.53,26150.00
1515.75,26148.00
1518.97,26355.00
1522.19,26492.00
1525.41,26457.00
1528.62,26481.00
1531.83,26513.00
1535.04,26462.00
1538.25,26466.00
1541.46,26514.00
1544.66,26555.00
1547.86,26640.00
1551.06,26804.00
1554.26,26735.00
1557.45,26745.00
1560.64,27030.00
1563.83,26855.00
1567.02,26884.00
1570.20,26960.00
1573.39,27023.00
1576.57,26861.00
1579.75,27065.00
1582.92,26760.00
1586.10,26851.00
1589.27,26844.00
1592.44,26840.00
1595.60,26977.00
1598.77,27053.00
1601.93,27076.00
1605.09,26960.00
1608.25,26941.00
1611.41,26929.00
1614.56,26873.00
1617.71,26777.00
1620.86,26834.00
1624.01,26823.00
1627.16,27035.00
1630.30,26924.00
1633.44,27133.00
1636.58,27133.00
1639.72,27154.00
1642.85,27027.00
1645.98,27196.00
1649.11,27225.00
1652.24,27158.00
1655.37,27135.00
1658.49,27226.00
1661.61,27229.00
1664.73,27319.00
1667.85,27356.00
1670.96,27377.00
1674.07,27352.00
1677.18,27708.00
1680.29,27510.00
1683.40,27582.00
1686.50,27359.00
1689.60,27435.00
1692.70,27556.00
1695.80,27289.00
1698.89,27359.00
1701.99,27442.00
1705.08,27497.00
1708.17,27744.00
1711.25,27750.00
1714.34,27773.00
1717.42,27755.00
1720.50,27548.00
1723.58,27605.00
1726.65,27566.00
1729.72,27634.00
1732.79,27702.00
1735.86,27660.00
1738.93,27862.00
1742.00,27862.00
1745.06,27961.00
1748.12,27974.00
1751.18,28147.00
1754.23,27911.00
1757.29,28083.00
1760.34,28090.00
1763.39,28242.00
1766.44,28148.00
1769.48,28288.00
1772.52,28288.00
1775.56,28490.00
1778.60,28306.00
1781.64,28478.00
1784.67,28443.00
1787.71,28535.00
1790.74,28571.00
1793.77,28651.00
1796.79,28813.00
1799.82,28695.00
1802.84,28832.00
1805.86,28870.00
1808.87,28846.00
1811.89,28885.00
1814.90,28850.00
1817.91,28942.00
1820.92,28778.00
1823.93,28988.00
1826.94,28792.00
1829.94,28896.00
1832.94,28859.00
1835.94,28857.00
1838.93,28820.00
1841.93,28783.00
1844.92,28862.00
1847.91,28826.00
1850.90,28847.00
1853.88,28866.00
1856.87,28870.00
1859.85,28762.00
1862.83,28697.00
1865.80,28741.00
1868.78,28830.00
1871.75,28726.00
1874.72,28769.00
1877.69,28784.00
1880.66,28756.00
1883.62,28577.00
1886.59,28613.00
1889.55,28763.00
1892.51,28803.00
1895.46,28655.00
1898.42,28685.00
1901.37,28741.00
1904.32,28676.00
1907.27,28744.00
1910.21,28763.00
1913.16,28548.00
1916.10,28657.00
1919.04,28829.00
1921.97,28678.00
1924.91,28761.00
1927.84,28847.00
1930.77,29026.00
1933.70,28849.00
1936.63,28822.00
1939.56,28651.00
1942.48,28712.00
1945.40,28801.00
1948.32,28571.00
1951.24,28839.00
1954.15,28648.00
1957.06,28727.00
1959.97,28802.00
1962.88,28719.00
1965.79,28771.00
1968.69,28820.00
1971.59,28716.00
1974.49,28918.00
1977.39,28763.00
1980.29,28823.00
1983.18,28541.00
1986.08,28730.00
1988.97,28720.00
1991.85,28672.00
1994.74,28626.00
1997.62,28693.00
2000.50,28691.00
2003.38,28644.00
2006.26,28508.00
2009.14,28562.00
2012.01,28621.00
2014.88,28714.00
2017.75,28560.00
2020.62,28646.00
2023.48,28626.00
2026.35,28827.00
2029.21,28638.00
2032.07,28778.00
2034.92,28854.00
2037.78,28752.00
2040.63,28819.00
2043.48,28859.00
2046.33,28756.00
2049.18,28775.00
2052.02,28861.00
2054.87,28826.00
2057.71,28976.00
2060.55,28864.00
2063.38,28933.00
2066.22,29073.00
2069.05,29060.00
2071.88,28897.00
2074.71,28921.00
2077.54,28858.00
2080.36,28938.00
2083.18,28934.00
2086.01,28871.00
2088.82,28839.00
2091.64,28785.00
2094.46,28946.00
2097.27,29178.00
2100.08,28893.00
2102.89,28813.00
2105.69,28921.00
2108.50,28862.00
2111.30,28798.00
2114.10,28615.00
2116.90,28701.00
2119.70,28840.00
2122.49,28611.00
2125.28,28655.00
2128.07,28784.00
2130.86,28638.00
2133.65,28608.00
2136.43,28758.00
2139.22,28712.00
2142.00,28386.00
2144.77,28567.00
2147.55,28634.00
2150.32,28471.00
2153.10,28382.00
2155.87,28368.00
2158.64,28412.00
2161.40,28393.00
2164.17,28373.00
2166.93,28396.00
2169.69,28528.00
2172.45,28618.00
2175.21,28478.00
2177.96,28484.00
2180.71,28548.00
2183.46,28455.00
2186.21,28476.00
2188.96,28413.00
2191.70,28406.00
2194.45,28561.00
2197.19,28499.00
2199.93,28444.00
2202.66,28560.00
2205.40,28402.00
2208.13,28539.00
2210.86,28523.00
2213.59,28413.00
2216.32,28398.00
2219.04,28476.00
2221.76,28455.00
2224.49,28480.00
2227.20,28552.00
2229.92,28503.00
2232.64,28493.00
2235.35,28543.00
2238.06,28529.00
2240.77,28410.00
2243.48,28303.00
2246.18,28398.00
2248.89,28206.00
2251.59,28385.00
2254.29,28218.00
2256.99,28437.00
2259.68,28352.00
2262.37,28111.00
2265.07,28197.00
2267.76,28320.00
2270.44,28187.00
2273.13,28052.00
2275.81,28010.00
2278.50,28113.00
2281.18,28028.00
2283.85,28060.00
2286.53,27995.00
2289.20,28024.00
2291.88,28002.00
2294.55,27885.00
2297.21,28039.00
2299.88,28047.00
2302.55,27732.00
2305.21,27849.00
2307.87,28031.00
2310.53,27921.00
2313.18,27816.00
2315.84,27758.00
2318.49,27782.00
2321.14,27830.00
2323.79,27900.00
2326.44,27875.00
2329.08,28008.00
2331.73,27892.00
2334.37,27889.00
2337.01,27875.00
2339.65,27829.00
2342.28,27983.00
2344.91,27883.00
2347.55,27778.00
2350.18,27745.00
2352.80,27662.00
2355.43,27786.00
2358.05,27829.00
2360.68,27900.00
2363.30,27851.00
2365.91,28001.00
2368.53,27803.00
2371.15,27704.00
2373.76,27757.00
2376.37,27765.00
2378.98,27601.00
2381.58,27732.00
2384.19,27679.00
2386.79,27780.00
2389.39,27728.00
2391.99,27901.00
2394.59,27696.00
2397.19,27616.00
2399.78,27501.00
2402.37,27550.00
2404.96,27552.00
2407.55,27520.00
2410.13,27401.00
2412.72,27523.00
2415.30,27601.00
2417.88,27645.00
2420.46,27631.00
2423.04,27648.00
2425.61,27477.00
2428.18,27506.00
2430.75,27590.00
2433.32,27483.00
2435.89,27342.00
2438.46,27401.00
2441.02,27473.00
2443.58,27257.00
2446.14,27479.00
2448.70,27386.00
2451.25,27257.00
2453.81,27409.00
2456.36,27379.00
2458.91,27185.00
2461.46,27138.00
2464.00,27104.00
2466.55,27024.00
2469.09,27046.00
2471.63,27128.00
2474.17,27094.00
2476.71,26915.00
2479.24,26981.00
2481.78,26869.00
2484.31,26936.00
2486.84,26724.00
2489.36,26867.00
2491.89,26723.00
2494.41,26768.00
2496.94,26661.00
2499.46,26572.00
2501.98,26481.00
2504.49,26518.00
2507.01,26656.00
2509.52,26435.00
2512.03,26500.00
2514.54,26419.00
2517.05,26466.00
2519.55,26366.00
2522.06,26406.00
2524.56,26420.00
2527.06,26149.00
2529.55,26130.00
2532.05,26035.00
2534.55,26174.00
2537.04,26117.00
2539.53,26197.00
2542.02,26123.00
2544.50,26159.00
2546.99,26123.00
2549.47,26125.00
2551.95,26074.00
2554.43,25973.00
2556.91,25921.00
2559.39,25826.00
2561.86,25789.00
2564.33,25955.00
2566.80,25933.00
2569.27,26001.00
2571.74,25982.00
2574.20,25927.00
2576.67,25835.00
2579.13,25783.00
2581.59,25777.00
2584.04,25883.00
2586.50,25889.00
2588.95,25765.00
2591.40,25813.00
2593.85,25826.00
2596.30,25782.00
2598.75,25794.00
2601.19,25720.00
2603.64,25630.00
2606.08,25606.00
2608.52,25574.00
2610.95,25579.00
2613.39,25558.00
2615.82,25475.00
2618.26,25506.00
2620.69,25600.00
2623.11,25556.00
2625.54,25568.00
2627.96,25602.00
2630.39,25461.00
2632.81,25456.00
2635.23,25471.00
2637.65,25431.00
2640.06,25514.00
2642.47,25398.00
2644.89,25421.00
2647.30,25545.00
2649.71,25421.00
2652.11,25335.00
2654.52,25305.00
2656.92,25369.00
2659.32,25346.00
2661.72,25286.00
2664.12,25313.00
2666.51,25202.00
2668.91,25248.00
2671.30,25320.00
2673.69,25217.00
2676.08,25187.00
2678.46,25220.00
2680.85,25371.00
2683.23,25366.00
2685.61,25182.00
2687.99,25141.00
2690.37,25159.00
2692.75,25162.00
2695.12,25166.00
2697.49,25162.00
2699.86,25176.00
2702.23,25060.00
2704.60,25102.00
2706.97,24965.00
2709.33,24974.00
2711.69,24962.00
2714.05,24968.00
2716.41,24986.00
2718.76,24996.00
2721.12,24939.00
2723.47,24965.00
2725.82,24997.00
2728.17,24854.00
2730.52,24825.00
2732.86,24814.00
2735.21,24805.00
2737.55,24734.00
2739.89,24842.00
2742.23,24687.00
2744.57,24748.00
2746.90,24674.00
2749.23,24670.00
2751.57,24634.00
2753.90,24670.00
2756.22,24639.00
2758.55,24571.00
2760.87,24481.00
2763.20,24508.00
2765.52,24529.00
2767.84,24597.00
2770.15,24544.00
2772.47,24608.00
2774.78,24634.00
2777.09,24382.00
2779.40,24504.00
2781.71,24436.00
2784.02,24458.00
2786.32,24369.00
2788.63,24379.00
2790.93,24371.00
2793.23,24321.00
2795.53,24433.00
2797.82,24373.00
2800.12,24337.00
2802.41,24398.00
2804.70,24275.00
2806.99,24220.00
2809.28,24126.00
2811.56,24137.00
2813.85,24118.00
2816.13,24197.00
2818.41,24180.00
2820.69,24157.00
2822.96,24133.00
2825.24,24051.00
2827.51,24094.00
2829.79,23978.00
2832.05,24022.00
2834.32,23973.00
2836.59,23877.00
2838.85,23736.00
2841.12,23908.00
2843.38,23924.00
2845.64,23941.00
2847.90,23815.00
2850.15,23755.00
2852.41,23819.00
2854.66,23682.00
2856.91,23753.00
2859.16,23638.00
2861.41,23652.00
2863.65,23751.00
2865.90,23641.00
2868.14,23574.00
2870.38,23537.00
2872.62,23393.00
2874.85,23517.00
2877.09,23465.00
2879.32,23418.00
2881.55,23376.00
2883.78,23357.00
2886.01,23241.00
2888.24,23386.00
2890.46,23075.00
2892.69,23258.00
2894.91,23038.00
2897.13,23130.00
2899.35,23119.00
2901.56,23147.00
2903.78,23106.00
2905.99,23021.00
2908.20,22900.00
2910.41,23007.00
2912.62,22928.00
2914.82,22849.00
2917.03,22767.00
2919.23,22833.00
2921.43,22641.00
2923.63,22556.00
2925.83,22526.00
2928.02,22594.00
2930.22,22613.00
2932.41,22585.00
2934.60,22537.00
2936.79,22482.00
2938.98,22480.00
2941.16,22523.00
2943.35,22543.00
2945.53,22324.00
2947.71,22259.00
2949.89,22466.00
2952.06,22289.00
2954.24,22197.00
2956.41,22284.00
2958.58,22179.00
2960.75,22297.00
2962.92,22208.00
2965.09,22172.00
2967.25,22058.00
2969.42,22123.00
2971.58,21980.00
2973.74,21805.00
2975.90,21963.00
2978.05,21925.00
2980.21,21861.00
2982.36,21806.00
2984.51,21723.00
2986.66,21847.00
2988.81,21791.00
2990.96,21683.00
2993.10,21587.00
2995.25,21626.00
2997.39,21508.00
2999.53,21561.00
3001.66,21527.00
3003.80,21458.00
3005.94,21499.00
3008.07,21369.00
3010.20,21291.00
3012.33,21222.00
3014.46,21198.00
3016.58,21239.00
3018.71,21245.00
3020.83,21051.00
3022.95,21200.00
3025.07,20888.00
3027.19,20972.00
3029.31,20935.00
3031.42,20892.00
3033.53,20762.00
3035.64,20810.00
3037.75,20770.00
3039.86,20675.00
3041.97,20652.00
3044.07,20576.00
3046.17,20458.00
3048.28,20391.00
3050.38,20372.00
3052.47,20344.00
3054.57,20182.00
3056.66,20161.00
3058.76,20245.00
3060.85,20060.00
3062.94,19952.00
3065.02,19936.00
3067.11,19813.00
3069.20,19802.00
3071.28,19650.00
3073.36,19651.00
3075.44,19600.00
3077.52,19655.00
3079.59,19673.00
3081.67,19543.00
3083.74,19336.00
3085.81,19259.00
3087.88,19322.00
3089.95,19098.00
3092.01,19079.00
3094.08,19094.00
3096.14,19107.00
3098.20,18926.00
3100.26,18875.00
3102.32,18900.00
3104.38,18755.00
3106.43,18809.00
3108.48,18752.00
3110.54,18635.00
3112.59,18639.00
3114.63,18513.00
3116.68,18457.00
3118.72,18371.00
3120.77,18322.00
3122.81,18240.00
3124.85,18198.00
3126.89,18183.00
3128.92,18002.00
3130.96,18108.00
3132.99,17962.00
3135.02,17951.00
3137.05,17877.00
3139.08,17772.00
3141.11,17648.00
3143.13,17642.00
3145.16,17579.00
3147.18,17593.00
3149.20,17572.00
3151.22,17423.00
3153.23,17378.00
3155.25,17326.00
3157.26,17298.00
3159.28,17144.00
3161.29,17098.00
3163.29,16988.00
3165.30,17024.00
3167.31,16921.00
3169.31,16802.00
3171.31,16835.00
3173.31,16687.00
3175.31,16729.00
3177.31,16543.00
3179.31,16505.00
3181.30,16400.00
3183.29,16350.00
3185.28,16296.00
3187.27,16286.00
3189.26,16189.00
3191.25,16008.00
3193.23,16086.00
3195.21,15944.00
3197.19,15854.00
3199.17,15772.00
3201.15,15732.00
3203.13,15744.00
3205.10,15561.00
