ENLIGHTEN Version,1.6.8
Measurement ID,20190528-110513-638870-WP-00357
Serial Number,WP-00357
Label,Urea
Integration Time,10
Timestamp,2019-05-28 11:05:13.638870
Note,
Temperature,-99
CCD C0,801.1829833984375
CCD C1,0.12474799901247025
CCD C2,-2.2862799596623518e-05
CCD C3,4.907460215974879e-09
CCD Offset,0
CCD Gain,1.9
Laser Wavelength,785.0
Laser Enable,False
Laser Power,100.0
Laser Temperature,-99
Pixel Count,1952

Wavenumber,Processed
257.31,0.00
259.25,0.00
261.19,0.00
263.13,175.00
265.07,-255.00
267.01,175.00
268.95,-39.00
270.88,118.00
272.82,588.00
274.75,-344.00
276.68,446.00
278.61,353.00
280.54,-281.00
282.46,-250.00
284.39,342.00
286.31,-257.00
288.24,-108.00
290.16,-474.00
292.08,-216.00
294.00,-108.00
295.92,-135.00
297.83,-216.00
299.75,464.00
301.66,-281.00
303.58,-127.00
305.49,-160.00
307.40,578.00
309.31,67.00
311.22,-239.00
313.12,-426.00
315.03,195.00
316.93,-51.00
318.83,44.00
320.73,-464.00
322.63,-923.00
324.53,-888.00
326.43,-129.00
328.33,183.00
330.22,-224.00
332.12,-185.00
334.01,75.00
335.90,-543.00
337.79,-193.00
339.68,179.00
341.57,-502.00
343.45,372.00
345.34,-324.00
347.22,124.00
349.10,-361.00
350.98,-72.00
352.86,655.00
354.74,9.00
356.62,14.00
358.50,164.00
360.37,59.00
362.24,242.00
364.12,-471.00
365.99,1022.00
367.86,-591.00
369.73,-34.00
371.59,651.00
373.46,-255.00
375.33,1023.00
377.19,130.00
379.05,247.00
380.91,-452.00
382.77,355.00
384.63,317.00
386.49,206.00
388.35,68.00
390.20,341.00
392.06,1021.00
393.91,419.00
395.76,286.00
397.61,416.00
399.46,291.00
401.31,-91.00
403.15,838.00
405.00,155.00
406.84,398.00
408.69,758.00
410.53,1079.00
412.37,-6.00
414.21,-379.00
416.05,512.00
417.88,128.00
419.72,761.00
421.55,145.00
423.39,-290.00
425.22,-20.00
427.05,626.00
428.88,77.00
430.71,648.00
432.54,845.00
434.36,351.00
436.19,154.00
438.01,152.00
439.83,418.00
441.65,-321.00
443.48,6.00
445.29,276.00
447.11,669.00
448.93,365.00
450.74,33.00
452.56,-284.00
454.37,176.00
456.18,546.00
457.99,639.00
459.80,248.00
461.61,1115.00
463.42,561.00
465.23,284.00
467.03,872.00
468.83,258.00
470.64,603.00
472.44,859.00
474.24,565.00
476.04,603.00
477.84,-148.00
479.63,820.00
481.43,55.00
483.22,193.00
485.02,602.00
486.81,494.00
488.60,380.00
490.39,530.00
492.18,266.00
493.96,1228.00
495.75,42.00
497.54,288.00
499.32,569.00
501.10,-241.00
502.88,367.00
504.67,328.00
506.45,344.00
508.22,96.00
510.00,494.00
511.78,1281.00
513.55,957.00
515.33,555.00
517.10,808.00
518.87,1097.00
520.64,651.00
522.41,1008.00
524.18,1539.00
525.94,1338.00
527.71,1813.00
529.47,1720.00
531.24,2438.00
533.00,1463.00
534.76,2434.00
536.52,2747.00
538.28,3923.00
540.04,3662.00
541.80,4510.00
543.55,4691.00
545.31,5431.00
547.06,6396.00
548.81,6262.00
550.56,6458.00
552.31,5415.00
554.06,6239.00
555.81,4575.00
557.56,3988.00
559.30,4445.00
561.05,4087.00
562.79,2980.00
564.53,3649.00
566.28,3504.00
568.02,3389.00
569.75,3404.00
571.49,2478.00
573.23,2644.00
574.97,2749.00
576.70,2474.00
578.43,2747.00
580.17,1857.00
581.90,1562.00
583.63,1486.00
585.36,1588.00
587.09,1458.00
588.81,919.00
590.54,1176.00
592.26,703.00
593.99,1424.00
595.71,1096.00
597.43,1575.00
599.15,460.00
600.87,766.00
602.59,894.00
604.31,565.00
606.02,107.00
607.74,238.00
609.45,113.00
611.17,116.00
612.88,580.00
614.59,-87.00
616.30,961.00
618.01,406.00
619.71,453.00
621.42,754.00
623.13,108.00
624.83,942.00
626.53,957.00
628.24,552.00
629.94,697.00
631.64,780.00
633.34,858.00
635.04,222.00
636.73,570.00
638.43,383.00
640.12,491.00
641.82,200.00
643.51,812.00
645.20,432.00
646.89,866.00
648.58,792.00
650.27,105.00
651.96,813.00
653.65,415.00
655.33,-111.00
657.02,492.00
658.70,382.00
660.38,6.00
662.06,234.00
663.74,-348.00
665.42,241.00
667.10,151.00
668.78,673.00
670.45,240.00
672.13,-37.00
673.80,902.00
675.48,301.00
677.15,549.00
678.82,-128.00
680.49,1064.00
682.16,545.00
683.83,584.00
685.49,691.00
687.16,-115.00
688.82,232.00
690.49,-200.00
692.15,-81.00
693.81,168.00
695.47,298.00
697.13,80.00
698.79,799.00
700.45,-129.00
702.11,292.00
703.76,16.00
705.42,133.00
707.07,659.00
708.72,601.00
710.37,510.00
712.02,97.00
713.67,-122.00
715.32,348.00
716.97,391.00
718.62,38.00
720.26,340.00
721.91,195.00
723.55,-155.00
725.19,836.00
726.84,-455.00
728.48,142.00
730.12,965.00
731.75,899.00
733.39,95.00
735.03,-276.00
736.66,320.00
738.30,262.00
739.93,11.00
741.57,355.00
743.20,-429.00
744.83,143.00
746.46,534.00
748.09,179.00
749.71,579.00
751.34,39.00
752.97,642.00
754.59,527.00
756.22,-133.00
757.84,468.00
759.46,-112.00
761.08,241.00
762.70,113.00
764.32,572.00
765.94,572.00
767.56,381.00
769.17,100.00
770.79,591.00
772.40,-5.00
774.01,364.00
775.63,120.00
777.24,-1303.00
778.85,514.00
780.46,-162.00
782.07,-278.00
783.67,369.00
785.28,903.00
786.88,723.00
788.49,443.00
790.09,-290.00
791.70,436.00
793.30,-169.00
794.90,-212.00
796.50,1411.00
798.10,24.00
799.69,-28.00
801.29,983.00
802.89,202.00
804.48,23.00
806.08,66.00
807.67,-180.00
809.26,-317.00
810.85,363.00
812.44,87.00
814.03,-176.00
815.62,158.00
817.21,-298.00
818.79,222.00
820.38,-419.00
821.96,101.00
823.55,-138.00
825.13,-184.00
826.71,-205.00
828.29,-88.00
829.87,-422.00
831.45,396.00
833.03,86.00
834.61,7.00
836.18,-278.00
837.76,-9.00
839.33,-413.00
840.91,112.00
842.48,817.00
844.05,137.00
845.62,78.00
847.19,-35.00
848.76,736.00
850.33,416.00
851.90,82.00
853.46,299.00
855.03,581.00
856.59,314.00
858.15,615.00
859.72,61.00
861.28,270.00
862.84,135.00
864.40,-179.00
865.96,1131.00
867.52,130.00
869.07,575.00
870.63,-600.00
872.18,311.00
873.74,-96.00
875.29,13.00
876.84,-483.00
878.40,546.00
879.95,-423.00
881.50,723.00
883.04,153.00
884.59,-478.00
886.14,-110.00
887.69,-153.00
889.23,20.00
890.78,379.00
892.32,962.00
893.86,112.00
895.40,-34.00
896.94,-95.00
898.48,535.00
900.02,-80.00
901.56,-515.00
903.10,296.00
904.63,532.00
906.17,419.00
907.70,136.00
909.24,-374.00
910.77,356.00
912.30,-255.00
913.83,-113.00
915.36,961.00
916.89,662.00
918.42,297.00
919.95,300.00
921.48,-110.00
923.00,388.00
924.53,408.00
926.05,274.00
927.57,-144.00
929.10,587.00
930.62,575.00
932.14,383.00
933.66,77.00
935.18,245.00
936.70,279.00
938.21,254.00
939.73,625.00
941.24,1231.00
942.76,-360.00
944.27,762.00
945.79,154.00
947.30,655.00
948.81,655.00
950.32,649.00
951.83,524.00
953.34,679.00
954.84,571.00
956.35,653.00
957.86,557.00
959.36,543.00
960.87,506.00
962.37,233.00
963.87,593.00
965.37,880.00
966.88,-129.00
968.38,573.00
969.87,391.00
971.37,521.00
972.87,204.00
974.37,779.00
975.86,322.00
977.36,178.00
978.85,199.00
980.35,1201.00
981.84,1007.00
983.33,1771.00
984.82,984.00
986.31,1502.00
987.80,2177.00
989.29,1271.00
990.77,2784.00
992.26,3362.00
993.75,3451.00
995.23,4306.00
996.72,6798.00
998.20,9109.00
999.68,10205.00
1001.16,11475.00
1002.64,15970.00
1004.12,19150.00
1005.60,22937.00
1007.08,26561.00
1008.56,28028.00
1010.04,29466.00
1011.51,32092.00
1012.99,34533.00
1014.46,35160.00
1015.93,34270.00
1017.41,35265.00
1018.88,33937.00
1020.35,31632.00
1021.82,30808.00
1023.29,25710.00
1024.76,22505.00
1026.23,18826.00
1027.69,17198.00
1029.16,14404.00
1030.62,13216.00
1032.09,10827.00
1033.55,9090.00
1035.02,7159.00
1036.48,6799.00
1037.94,5452.00
1039.40,3474.00
1040.86,3451.00
1042.32,3397.00
1043.78,3671.00
1045.23,2070.00
1046.69,1488.00
1048.15,2723.00
1049.60,1321.00
1051.05,2117.00
1052.51,2424.00
1053.96,1063.00
1055.41,1100.00
1056.86,1607.00
1058.31,2205.00
1059.76,1354.00
1061.21,1940.00
1062.66,917.00
1064.10,608.00
1065.55,1032.00
1067.00,70.00
1068.44,1292.00
1069.88,872.00
1071.33,1169.00
1072.77,1001.00
1074.21,751.00
1075.65,1458.00
1077.09,1139.00
1078.53,1827.00
1079.97,1093.00
1081.41,984.00
1082.84,992.00
1084.28,1495.00
1085.71,1728.00
1087.15,718.00
1088.58,793.00
1090.02,505.00
1091.45,1343.00
1092.88,673.00
1094.31,925.00
1095.74,575.00
1097.17,592.00
1098.60,1793.00
1100.02,634.00
1101.45,980.00
1102.88,1638.00
1104.30,1150.00
1105.73,130.00
1107.15,479.00
1108.57,393.00
1109.99,906.00
1111.42,1120.00
1112.84,697.00
1114.26,342.00
1115.68,844.00
1117.09,1237.00
1118.51,1212.00
1119.93,537.00
1121.34,582.00
1122.76,759.00
1124.17,1455.00
1125.59,1360.00
1127.00,684.00
1128.41,909.00
1129.82,841.00
1131.24,1469.00
1132.65,859.00
1134.05,1079.00
1135.46,390.00
1136.87,1487.00
1138.28,1018.00
1139.68,1245.00
1141.09,635.00
1142.50,609.00
1143.90,1487.00
1145.30,327.00
1146.71,1375.00
1148.11,1607.00
1149.51,1075.00
1150.91,1571.00
1152.31,753.00
1153.71,691.00
1155.11,651.00
1156.50,1431.00
1157.90,755.00
1159.30,1719.00
1160.69,1221.00
1162.08,1529.00
1163.48,1674.00
1164.87,2038.00
1166.26,2125.00
1167.66,1805.00
1169.05,2037.00
1170.44,2595.00
1171.83,1424.00
1173.21,2351.00
1174.60,2153.00
1175.99,1727.00
1177.38,1852.00
1178.76,1612.00
1180.15,2445.00
1181.53,2092.00
1182.92,2515.00
1184.30,2177.00
1185.68,2638.00
1187.06,1506.00
1188.44,1706.00
1189.82,1093.00
1191.20,2051.00
1192.58,1309.00
1193.96,1585.00
1195.34,1762.00
1196.71,1967.00
1198.09,1994.00
1199.46,1785.00
1200.84,1796.00
1202.21,1617.00
1203.58,967.00
1204.96,1606.00
1206.33,1798.00
1207.70,1425.00
1209.07,874.00
1210.44,1518.00
1211.81,438.00
1213.17,964.00
1214.54,622.00
1215.91,483.00
1217.27,366.00
1218.64,367.00
1220.00,455.00
1221.37,1107.00
1222.73,871.00
1224.09,793.00
1225.45,611.00
1226.82,103.00
1228.18,829.00
1229.54,264.00
1230.89,470.00
1232.25,848.00
1233.61,773.00
1234.97,541.00
1236.32,559.00
1237.68,1285.00
1239.03,923.00
1240.39,652.00
1241.74,889.00
1243.09,260.00
1244.45,1088.00
1245.80,306.00
1247.15,1178.00
1248.50,482.00
1249.85,571.00
1251.20,871.00
1252.54,923.00
1253.89,457.00
1255.24,496.00
1256.58,686.00
1257.93,53.00
1259.27,21.00
1260.62,300.00
1261.96,819.00
1263.30,936.00
1264.64,1050.00
1265.98,825.00
1267.33,420.00
1268.67,631.00
1270.00,880.00
1271.34,159.00
1272.68,1286.00
1274.02,43.00
1275.35,719.00
1276.69,1771.00
1278.03,1050.00
1279.36,804.00
1280.69,898.00
1282.03,768.00
1283.36,903.00
1284.69,885.00
1286.02,-89.00
1287.35,923.00
1288.68,1609.00
1290.01,147.00
1291.34,594.00
1292.67,852.00
1294.00,1673.00
1295.32,1003.00
1296.65,868.00
1297.97,627.00
1299.30,735.00
1300.62,1322.00
1301.94,334.00
1303.27,367.00
1304.59,720.00
1305.91,23.00
1307.23,338.00
1308.55,996.00
1309.87,1009.00
1311.19,1140.00
1312.51,430.00
1313.82,529.00
1315.14,357.00
1316.46,831.00
1317.77,-214.00
1319.09,489.00
1320.40,-128.00
1321.72,452.00
1323.03,906.00
1324.34,928.00
1325.65,407.00
1326.96,377.00
1328.27,597.00
1329.58,688.00
1330.89,11.00
1332.20,619.00
1333.51,1507.00
1334.82,1376.00
1336.12,1257.00
1337.43,689.00
1338.73,564.00
1340.04,907.00
1341.34,540.00
1342.65,570.00
1343.95,775.00
1345.25,820.00
1346.55,647.00
1347.85,1636.00
1349.15,761.00
1350.45,742.00
1351.75,923.00
1353.05,1419.00
1354.35,1098.00
1355.65,942.00
1356.94,349.00
1358.24,1220.00
1359.53,298.00
1360.83,468.00
1362.12,246.00
1363.42,521.00
1364.71,541.00
1366.00,832.00
1367.29,618.00
1368.58,1106.00
1369.87,167.00
1371.16,1621.00
1372.45,1417.00
1373.74,252.00
1375.03,720.00
1376.32,433.00
1377.60,931.00
1378.89,1163.00
1380.17,-97.00
1381.46,1119.00
1382.74,1401.00
1384.03,654.00
1385.31,1093.00
1386.59,576.00
1387.87,380.00
1389.15,985.00
1390.43,782.00
1391.71,976.00
1392.99,1272.00
1394.27,1069.00
1395.55,1004.00
1396.83,1755.00
1398.11,128.00
1399.38,978.00
1400.66,766.00
1401.93,1632.00
1403.21,1326.00
1404.48,1290.00
1405.75,233.00
1407.03,162.00
1408.30,1666.00
1409.57,1172.00
1410.84,946.00
1412.11,938.00
1413.38,455.00
1414.65,793.00
1415.92,1378.00
1417.19,771.00
1418.46,991.00
1419.72,988.00
1420.99,1591.00
1422.25,247.00
1423.52,834.00
1424.78,1851.00
1426.05,1556.00
1427.31,-565.00
1428.57,922.00
1429.84,1910.00
1431.10,981.00
1432.36,951.00
1433.62,1274.00
1434.88,1407.00
1436.14,255.00
1437.40,1319.00
1438.65,1697.00
1439.91,1354.00
1441.17,1000.00
1442.43,816.00
1443.68,775.00
1444.94,684.00
1446.19,1221.00
1447.44,1529.00
1448.70,1103.00
1449.95,783.00
1451.20,1534.00
1452.46,1568.00
1453.71,594.00
1454.96,1628.00
1456.21,1236.00
1457.46,266.00
1458.71,1509.00
1459.95,1352.00
1461.20,1676.00
1462.45,1661.00
1463.70,1080.00
1464.94,1433.00
1466.19,1582.00
1467.43,1729.00
1468.68,1092.00
1469.92,1516.00
1471.16,712.00
1472.41,748.00
1473.65,1500.00
1474.89,1910.00
1476.13,1595.00
1477.37,1942.00
1478.61,1533.00
1479.85,1722.00
1481.09,1860.00
1482.33,1432.00
1483.57,1067.00
1484.80,1616.00
1486.04,1140.00
1487.28,1676.00
1488.51,1156.00
1489.75,1874.00
1490.98,1678.00
1492.21,1146.00
1493.45,345.00
1494.68,1742.00
1495.91,1026.00
1497.14,1354.00
1498.37,911.00
1499.61,1028.00
1500.84,1500.00
1502.06,1002.00
1503.29,2088.00
1504.52,1396.00
1505.75,1257.00
1506.98,1511.00
1508.20,2062.00
1509.43,1131.00
1510.66,1718.00
1511.88,816.00
1513.11,1055.00
1514.33,1160.00
1515.55,1864.00
1516.78,1731.00
1518.00,1564.00
1519.22,1304.00
1520.44,1936.00
1521.66,856.00
1522.88,1697.00
1524.10,2093.00
1525.32,2482.00
1526.54,2401.00
1527.76,2922.00
1528.98,2274.00
1530.19,1791.00
1531.41,2324.00
1532.63,3217.00
1533.84,1793.00
1535.06,3027.00
1536.27,2189.00
1537.48,2814.00
1538.70,3201.00
1539.91,2428.00
1541.12,2497.00
1542.33,3442.00
1543.55,2817.00
1544.76,2594.00
1545.97,2671.00
1547.18,3853.00
1548.39,2358.00
1549.59,3383.00
1550.80,3871.00
1552.01,2264.00
1553.22,3240.00
1554.42,2651.00
1555.63,1641.00
1556.84,2676.00
1558.04,2680.00
1559.24,2395.00
1560.45,2162.00
1561.65,2505.00
1562.86,3014.00
1564.06,2616.00
1565.26,3026.00
1566.46,2056.00
1567.66,1652.00
1568.86,1000.00
1570.06,1773.00
1571.26,1247.00
1572.46,1867.00
1573.66,1098.00
1574.86,1510.00
1576.05,3003.00
1577.25,1797.00
1578.45,2297.00
1579.64,1834.00
1580.84,1125.00
1582.03,1426.00
1583.23,1761.00
1584.42,2149.00
1585.61,2515.00
1586.81,1529.00
1588.00,1342.00
1589.19,444.00
1590.38,1869.00
1591.57,1039.00
1592.76,2596.00
1593.95,1243.00
1595.14,1058.00
1596.33,1101.00
1597.52,1134.00
1598.71,741.00
1599.90,1424.00
1601.08,1705.00
1602.27,1772.00
1603.45,534.00
1604.64,1328.00
1605.83,1855.00
1607.01,1035.00
1608.19,1481.00
1609.38,1517.00
1610.56,2852.00
1611.74,1041.00
1612.92,1407.00
1614.11,1786.00
1615.29,2119.00
1616.47,1402.00
1617.65,1965.00
1618.83,1101.00
1620.01,1449.00
1621.18,2201.00
1622.36,2325.00
1623.54,2218.00
1624.72,1129.00
1625.89,1566.00
1627.07,2036.00
1628.25,2049.00
1629.42,1562.00
1630.60,2109.00
1631.77,2686.00
1632.94,1527.00
1634.12,1492.00
1635.29,2021.00
1636.46,2771.00
1637.63,1963.00
1638.80,2049.00
1639.98,1461.00
1641.15,2228.00
1642.32,2271.00
1643.49,1555.00
1644.65,2502.00
1645.82,2259.00
1646.99,2757.00
1648.16,1013.00
1649.33,1260.00
1650.49,2105.00
1651.66,1872.00
1652.82,2194.00
1653.99,1604.00
1655.15,1874.00
1656.32,1571.00
1657.48,1783.00
1658.65,2328.00
1659.81,1717.00
1660.97,1745.00
1662.13,2062.00
1663.29,2267.00
1664.45,1889.00
1665.62,1260.00
1666.78,1434.00
1667.94,1497.00
1669.09,2101.00
1670.25,1708.00
1671.41,2601.00
1672.57,1551.00
1673.73,2164.00
1674.88,1288.00
1676.04,1281.00
1677.20,1734.00
1678.35,1005.00
1679.51,1577.00
1680.66,1428.00
1681.82,579.00
1682.97,1520.00
1684.12,779.00
1685.27,787.00
1686.43,673.00
1687.58,904.00
1688.73,796.00
1689.88,496.00
1691.03,-55.00
1692.18,194.00
1693.33,470.00
1694.48,1183.00
1695.63,229.00
1696.78,1242.00
1697.93,763.00
1699.07,594.00
1700.22,752.00
1701.37,905.00
1702.51,1266.00
1703.66,796.00
1704.80,1000.00
1705.95,1279.00
1707.09,1084.00
1708.24,514.00
1709.38,1079.00
1710.52,846.00
1711.67,1531.00
1712.81,461.00
1713.95,731.00
1715.09,303.00
1716.23,1180.00
1717.37,1081.00
1718.51,277.00
1719.65,923.00
1720.79,1302.00
1721.93,626.00
1723.07,452.00
1724.20,623.00
1725.34,991.00
1726.48,711.00
1727.62,801.00
1728.75,271.00
1729.89,251.00
1731.02,1150.00
1732.16,400.00
1733.29,747.00
1734.43,-9.00
1735.56,1334.00
1736.69,-390.00
1737.82,1473.00
1738.96,-68.00
1740.09,882.00
1741.22,1355.00
1742.35,337.00
1743.48,789.00
1744.61,213.00
1745.74,572.00
1746.87,482.00
1748.00,901.00
1749.13,46.00
1750.25,755.00
1751.38,449.00
1752.51,387.00
1753.64,874.00
1754.76,420.00
1755.89,367.00
1757.01,815.00
1758.14,440.00
1759.26,337.00
1760.39,402.00
1761.51,17.00
1762.63,182.00
1763.76,791.00
1764.88,563.00
1766.00,-214.00
1767.12,458.00
1768.24,104.00
1769.37,583.00
1770.49,191.00
1771.61,250.00
1772.73,961.00
1773.85,-210.00
1774.96,705.00
1776.08,848.00
1777.20,440.00
1778.32,591.00
1779.44,1117.00
1780.55,537.00
1781.67,623.00
1782.78,-20.00
1783.90,855.00
1785.01,280.00
1786.13,753.00
1787.24,346.00
1788.36,432.00
1789.47,1430.00
1790.58,590.00
1791.70,832.00
1792.81,291.00
1793.92,166.00
1795.03,1192.00
1796.14,941.00
1797.26,82.00
1798.37,1177.00
1799.48,1115.00
1800.58,488.00
1801.69,644.00
1802.80,-300.00
1803.91,387.00
1805.02,-176.00
1806.13,764.00
1807.23,496.00
1808.34,-140.00
1809.45,746.00
1810.55,344.00
1811.66,-95.00
1812.76,88.00
1813.87,720.00
1814.97,510.00
1816.08,652.00
1817.18,898.00
1818.28,989.00
1819.39,746.00
1820.49,193.00
1821.59,471.00
1822.69,1154.00
1823.79,156.00
1824.90,-130.00
1826.00,178.00
1827.10,902.00
1828.20,-224.00
1829.30,192.00
1830.39,346.00
1831.49,725.00
1832.59,954.00
1833.69,799.00
1834.79,-15.00
1835.88,471.00
1836.98,794.00
1838.08,209.00
1839.17,224.00
1840.27,371.00
1841.36,423.00
1842.46,47.00
1843.55,529.00
1844.65,145.00
1845.74,658.00
1846.83,514.00
1847.93,255.00
1849.02,-27.00
1850.11,423.00
1851.20,280.00
1852.30,-408.00
1853.39,72.00
1854.48,-171.00
1855.57,498.00
1856.66,506.00
1857.75,980.00
1858.84,-143.00
1859.93,15.00
1861.01,242.00
1862.10,15.00
1863.19,-219.00
1864.28,420.00
1865.37,-155.00
1866.45,-165.00
1867.54,258.00
1868.62,987.00
1869.71,-27.00
1870.79,-64.00
1871.88,28.00
1872.96,759.00
1874.05,1157.00
1875.13,183.00
1876.22,-457.00
1877.30,597.00
1878.38,224.00
1879.46,704.00
1880.55,575.00
1881.63,953.00
1882.71,-224.00
1883.79,763.00
1884.87,344.00
1885.95,-908.00
1887.03,341.00
1888.11,289.00
1889.19,-245.00
1890.27,-175.00
1891.35,564.00
1892.42,12.00
1893.50,364.00
1894.58,-99.00
1895.66,944.00
1896.73,296.00
1897.81,583.00
1898.89,740.00
1899.96,305.00
1901.04,400.00
1902.11,554.00
1903.19,962.00
1904.26,72.00
1905.33,797.00
1906.41,653.00
1907.48,-246.00
1908.55,493.00
1909.63,401.00
1910.70,-148.00
1911.77,229.00
1912.84,656.00
1913.91,-157.00
1914.98,65.00
1916.05,317.00
1917.12,252.00
1918.19,-220.00
1919.26,80.00
1920.33,855.00
1921.40,93.00
1922.47,1129.00
1923.54,372.00
1924.60,-296.00
1925.67,702.00
1926.74,323.00
1927.80,807.00
1928.87,1127.00
1929.94,149.00
1931.00,-223.00
1932.07,989.00
1933.13,793.00
1934.20,355.00
1935.26,11.00
1936.33,-470.00
1937.39,611.00
1938.45,-5.00
1939.52,-49.00
1940.58,-35.00
1941.64,86.00
1942.70,316.00
1943.76,-177.00
1944.83,374.00
1945.89,116.00
1946.95,295.00
1948.01,-218.00
1949.07,-184.00
1950.13,-47.00
1951.19,704.00
1952.25,936.00
1953.30,1030.00
1954.36,382.00
1955.42,248.00
1956.48,307.00
1957.54,149.00
1958.59,-51.00
1959.65,1030.00
1960.71,-77.00
1961.76,409.00
