ENLIGHTEN Version,1.6.8
Measurement ID,20190528-102655-610505-SIGD-0003
Serial Number,SIGD-0003
Label,Urea
Integration Time,50
Timestamp,2019-05-28 10:26:55.610505
Note,
Temperature,-99
CCD C0,613.8702392578125
CCD C1,0.10380711406469345
CCD C2,-1.9689399778144434e-05
CCD C3,3.600099995892947e-09
CCD Offset,0
CCD Gain,1.9
Laser Wavelength,633.0
Laser Enable,True
Laser Power,100.0
Laser Temperature,-99
Pixel Count,1952

Wavenumber,Processed
-492.30,0.00
-489.55,0.00
-486.79,0.00
-484.04,266.00
-481.30,43.00
-478.55,277.00
-475.81,-180.00
-473.06,-232.00
-470.32,-659.00
-467.59,-232.00
-464.85,-623.00
-462.12,-240.00
-459.38,-175.00
-456.65,-454.00
-453.93,-313.00
-451.20,27.00
-448.48,-644.00
-445.75,-700.00
-443.03,-261.00
-440.31,-248.00
-437.60,-189.00
-434.88,-309.00
-432.17,-380.00
-429.46,-247.00
-426.75,92.00
-424.04,152.00
-421.34,-302.00
-418.64,-390.00
-415.93,228.00
-413.24,145.00
-410.54,-779.00
-407.84,172.00
-405.15,-559.00
-402.46,-487.00
-399.77,-119.00
-397.08,-97.00
-394.39,-344.00
-391.71,-286.00
-389.03,-394.00
-386.35,179.00
-383.67,-269.00
-380.99,-552.00
-378.32,-474.00
-375.65,-90.00
-372.98,-310.00
-370.31,165.00
-367.64,-88.00
-364.98,138.00
-362.31,454.00
-359.65,-287.00
-356.99,-139.00
-354.33,-60.00
-351.68,-193.00
-349.03,-448.00
-346.37,-571.00
-343.72,-51.00
-341.08,6.00
-338.43,-120.00
-335.78,-3.00
-333.14,207.00
-330.50,-111.00
-327.86,-176.00
-325.23,-630.00
-322.59,357.00
-319.96,-594.00
-317.33,229.00
-314.70,-196.00
-312.07,-794.00
-309.44,-292.00
-306.82,-230.00
-304.20,-562.00
-301.57,316.00
-298.96,151.00
-296.34,197.00
-293.72,215.00
-291.11,-1.00
-288.50,110.00
-285.89,-637.00
-283.28,-188.00
-280.68,-187.00
-278.07,-654.00
-275.47,-321.00
-272.87,-96.00
-270.27,-245.00
-267.68,-342.00
-265.08,-84.00
-262.49,-466.00
-259.90,-393.00
-257.31,-253.00
-254.72,-223.00
-252.13,-676.00
-249.55,-294.00
-246.97,94.00
-244.39,-430.00
-241.81,-489.00
-239.23,-276.00
-236.65,-522.00
-234.08,-310.00
-231.51,-73.00
-228.94,-556.00
-226.37,-94.00
-223.81,217.00
-221.24,-587.00
-218.68,-657.00
-216.12,60.00
-213.56,-163.00
-211.00,224.00
-208.45,-306.00
-205.89,-328.00
-203.34,117.00
-200.79,-200.00
-198.24,-144.00
-195.69,503.00
-193.15,-714.00
-190.61,-85.00
-188.06,-307.00
-185.52,-362.00
-182.99,215.00
-180.45,333.00
-177.92,12.00
-175.38,113.00
-172.85,-511.00
-170.32,-135.00
-167.79,-160.00
-165.27,-150.00
-162.74,-392.00
-160.22,-448.00
-157.70,-429.00
-155.18,-191.00
-152.66,-99.00
-150.15,-34.00
-147.64,-164.00
-145.12,115.00
-142.61,-239.00
-140.10,-397.00
-137.60,-98.00
-135.09,-337.00
-132.59,297.00
-130.09,-471.00
-127.59,-549.00
-125.09,-395.00
-122.59,13.00
-120.10,-450.00
-117.60,-164.00
-115.11,-1088.00
-112.62,-110.00
-110.13,-17.00
-107.65,-258.00
-105.16,-433.00
-102.68,-1049.00
-100.20,-815.00
-97.72,-617.00
-95.24,-80.00
-92.76,-506.00
-90.29,-1.00
-87.82,342.00
-85.35,367.00
-82.88,46.00
-80.41,-216.00
-77.94,391.00
-75.48,82.00
-73.01,-333.00
-70.55,-349.00
-68.09,-492.00
-65.64,-233.00
-63.18,197.00
-60.73,-543.00
-58.27,-693.00
-55.82,-528.00
-53.37,-433.00
-50.92,-353.00
-48.48,-228.00
-46.03,-485.00
-43.59,326.00
-41.15,-683.00
-38.71,-159.00
-36.27,-550.00
-33.83,-766.00
-31.40,-42.00
-28.97,-106.00
-26.53,-116.00
-24.10,-402.00
-21.68,-98.00
-19.25,-269.00
-16.82,613.00
-14.40,-419.00
-11.98,-414.00
-9.56,-22.00
-7.14,-300.00
-4.72,-194.00
-2.31,24.00
0.10,-196.00
2.52,-346.00
4.93,-113.00
7.34,-23.00
9.74,65.00
12.15,-501.00
14.55,459.00
16.95,-477.00
19.36,-759.00
21.75,233.00
24.15,-193.00
26.55,-472.00
28.94,-586.00
31.34,206.00
33.73,-179.00
36.12,-42.00
38.50,68.00
40.89,129.00
43.27,-491.00
45.66,-287.00
48.04,-505.00
50.42,181.00
52.80,199.00
55.17,241.00
57.55,10.00
59.92,-204.00
62.30,-274.00
64.67,-418.00
67.04,-88.00
69.40,439.00
71.77,490.00
74.13,-359.00
76.50,-407.00
78.86,333.00
81.22,-171.00
83.57,-352.00
85.93,-245.00
88.29,-427.00
90.64,203.00
92.99,12.00
95.34,-240.00
97.69,-273.00
100.04,-324.00
102.38,-417.00
104.73,-575.00
107.07,-518.00
109.41,663.00
111.75,-591.00
114.09,612.00
116.42,-189.00
118.76,-519.00
121.09,-83.00
123.42,-208.00
125.75,-278.00
128.08,221.00
130.41,-478.00
132.74,-179.00
135.06,-381.00
137.38,-344.00
139.70,75.00
142.02,314.00
144.34,-363.00
146.66,-352.00
148.97,-302.00
151.29,-611.00
153.60,-172.00
155.91,202.00
158.22,145.00
160.52,-727.00
162.83,-188.00
165.13,306.00
167.44,178.00
169.74,-148.00
172.04,485.00
174.34,119.00
176.63,-242.00
178.93,-429.00
181.22,-495.00
183.52,-390.00
185.81,-985.00
188.10,-677.00
190.38,-518.00
192.67,-342.00
194.96,-243.00
197.24,-161.00
199.52,-40.00
201.80,-60.00
204.08,95.00
206.36,-629.00
208.63,-305.00
210.91,-358.00
213.18,-247.00
215.45,-11.00
217.72,379.00
219.99,-328.00
222.26,-186.00
224.53,-463.00
226.79,-817.00
229.05,-708.00
231.31,-527.00
233.57,-32.00
235.83,-341.00
238.09,-154.00
240.35,-634.00
242.60,-658.00
244.85,4.00
247.10,-554.00
249.35,-797.00
251.60,-637.00
253.85,-365.00
256.09,65.00
258.34,-433.00
260.58,-379.00
262.82,87.00
265.06,-294.00
267.30,-156.00
269.54,-473.00
271.77,74.00
274.01,63.00
276.24,102.00
278.47,-553.00
280.70,-52.00
282.93,-156.00
285.15,525.00
287.38,247.00
289.60,-790.00
291.83,-616.00
294.05,-571.00
296.27,-543.00
298.48,227.00
300.70,-111.00
302.92,-107.00
305.13,-320.00
307.34,-203.00
309.56,23.00
311.77,-656.00
313.97,-35.00
316.18,28.00
318.39,624.00
320.59,-587.00
322.79,-437.00
324.99,-409.00
327.19,434.00
329.39,-178.00
331.59,-323.00
333.79,193.00
335.98,315.00
338.17,558.00
340.37,192.00
342.56,-6.00
344.74,516.00
346.93,506.00
349.12,-275.00
351.30,448.00
353.49,-125.00
355.67,660.00
357.85,327.00
360.03,586.00
362.21,875.00
364.38,1173.00
366.56,864.00
368.73,1206.00
370.90,366.00
373.08,577.00
375.24,413.00
377.41,1309.00
379.58,1445.00
381.75,624.00
383.91,486.00
386.07,532.00
388.23,-148.00
390.39,1183.00
392.55,816.00
394.71,1010.00
396.87,721.00
399.02,1474.00
401.17,1042.00
403.33,271.00
405.48,814.00
407.63,442.00
409.77,1314.00
411.92,846.00
414.07,1211.00
416.21,1065.00
418.35,567.00
420.49,503.00
422.63,1053.00
424.77,422.00
426.91,585.00
429.05,777.00
431.18,1431.00
433.31,482.00
435.45,725.00
437.58,952.00
439.71,695.00
441.83,1349.00
443.96,184.00
446.09,622.00
448.21,75.00
450.33,518.00
452.45,1102.00
454.57,805.00
456.69,1449.00
458.81,698.00
460.93,376.00
463.04,970.00
465.16,500.00
467.27,659.00
469.38,86.00
471.49,1072.00
473.60,1780.00
475.70,942.00
477.81,531.00
479.91,1407.00
482.02,1465.00
484.12,1250.00
486.22,1157.00
488.32,122.00
490.42,1458.00
492.51,757.00
494.61,1128.00
496.70,1247.00
498.80,1135.00
500.89,774.00
502.98,1025.00
505.07,606.00
507.15,899.00
509.24,-38.00
511.33,890.00
513.41,734.00
515.49,1017.00
517.57,955.00
519.65,1152.00
521.73,1938.00
523.81,1433.00
525.89,1876.00
527.96,2966.00
530.03,1738.00
532.11,3245.00
534.18,2995.00
536.25,3877.00
538.32,3551.00
540.38,5053.00
542.45,3736.00
544.51,5088.00
546.58,5653.00
548.64,5302.00
550.70,4966.00
552.76,4988.00
554.82,5868.00
556.88,4593.00
558.93,4762.00
560.99,4354.00
563.04,3820.00
565.09,3516.00
567.14,4779.00
569.19,2936.00
571.24,3889.00
573.29,3163.00
575.34,2543.00
577.38,3372.00
579.42,2673.00
581.47,1961.00
583.51,2080.00
585.55,1945.00
587.59,1776.00
589.62,2381.00
591.66,1391.00
593.70,2119.00
595.73,1247.00
597.76,1701.00
599.79,1244.00
601.82,-172.00
603.85,912.00
605.88,1201.00
607.91,1303.00
609.93,866.00
611.96,1866.00
613.98,1176.00
616.00,1035.00
618.02,300.00
620.04,554.00
622.06,1356.00
624.08,1146.00
626.09,941.00
628.11,573.00
630.12,1250.00
632.13,689.00
634.14,944.00
636.15,1264.00
638.16,1384.00
640.17,959.00
642.17,916.00
644.18,1024.00
646.18,1334.00
648.18,1265.00
650.18,670.00
652.18,1048.00
654.18,1205.00
656.18,1324.00
658.18,718.00
660.17,388.00
662.17,722.00
664.16,928.00
666.15,1070.00
668.14,314.00
670.13,1717.00
672.12,287.00
674.11,422.00
676.09,449.00
678.08,920.00
680.06,271.00
682.04,519.00
684.02,850.00
686.00,453.00
687.98,300.00
689.96,880.00
691.94,255.00
693.91,1394.00
695.89,1122.00
697.86,635.00
699.83,1252.00
701.80,701.00
703.77,639.00
705.74,1231.00
707.71,1505.00
709.67,640.00
711.64,1057.00
713.60,1247.00
715.56,585.00
717.52,1037.00
719.48,-257.00
721.44,706.00
723.40,1043.00
725.36,820.00
727.31,1750.00
729.27,464.00
731.22,230.00
733.17,715.00
735.13,233.00
737.08,707.00
739.02,470.00
740.97,682.00
742.92,369.00
744.86,754.00
746.81,1224.00
748.75,981.00
750.69,1385.00
752.63,1010.00
754.57,103.00
756.51,763.00
758.45,697.00
760.39,459.00
762.32,819.00
764.26,666.00
766.19,967.00
768.12,1094.00
770.05,1261.00
771.98,410.00
773.91,1172.00
775.84,580.00
777.76,623.00
779.69,1063.00
781.61,382.00
783.54,297.00
785.46,-79.00
787.38,898.00
789.30,338.00
791.22,605.00
793.13,674.00
795.05,778.00
796.97,754.00
798.88,633.00
800.79,984.00
802.70,694.00
804.62,873.00
806.52,775.00
808.43,1092.00
810.34,706.00
812.25,230.00
814.15,1182.00
816.06,444.00
817.96,975.00
819.86,1069.00
821.76,708.00
823.66,947.00
825.56,-110.00
827.46,564.00
829.36,1386.00
831.25,775.00
833.15,719.00
835.04,397.00
836.93,965.00
838.82,712.00
840.71,1366.00
842.60,730.00
844.49,281.00
846.38,744.00
848.26,599.00
850.15,453.00
852.03,206.00
853.91,666.00
855.80,1762.00
857.68,340.00
859.56,682.00
861.43,71.00
863.31,-320.00
865.19,770.00
867.06,558.00
868.94,811.00
870.81,1021.00
872.68,1006.00
874.55,619.00
876.42,499.00
878.29,1037.00
880.16,1166.00
882.03,845.00
883.89,545.00
885.76,592.00
887.62,396.00
889.48,-208.00
891.35,1362.00
893.21,478.00
895.07,1201.00
896.92,359.00
898.78,941.00
900.64,1443.00
902.49,719.00
904.35,163.00
906.20,509.00
908.05,1073.00
909.90,264.00
911.75,1106.00
913.60,311.00
915.45,660.00
917.30,61.00
919.14,1520.00
920.99,406.00
922.83,722.00
924.68,109.00
926.52,726.00
928.36,893.00
930.20,777.00
932.04,1001.00
933.87,1622.00
935.71,1227.00
937.55,535.00
939.38,1114.00
941.21,606.00
943.05,949.00
944.88,742.00
946.71,1180.00
948.54,783.00
950.37,556.00
952.20,342.00
954.02,621.00
955.85,1169.00
957.67,742.00
959.50,1026.00
961.32,433.00
963.14,1464.00
964.96,1322.00
966.78,550.00
968.60,866.00
970.42,1113.00
972.23,1149.00
974.05,1193.00
975.86,401.00
977.68,1605.00
979.49,1469.00
981.30,932.00
983.11,1828.00
984.92,2119.00
986.73,1181.00
988.54,2724.00
990.34,3878.00
992.15,4332.00
993.95,6060.00
995.76,7126.00
997.56,8751.00
999.36,14551.00
1001.16,17680.00
1002.96,20806.00
1004.76,25548.00
1006.56,30382.00
1008.35,34696.00
1010.15,37637.00
1011.94,36490.00
1013.74,39629.00
1015.53,37472.00
1017.32,34929.00
1019.11,33172.00
1020.90,29146.00
1022.69,28189.00
1024.48,23749.00
1026.27,21117.00
1028.05,19806.00
1029.84,16766.00
1031.62,15204.00
1033.41,15658.00
1035.19,12083.00
1036.97,11958.00
1038.75,9953.00
1040.53,8922.00
1042.31,8260.00
1044.08,7481.00
1045.86,7469.00
1047.64,6665.00
1049.41,4963.00
1051.18,5928.00
1052.96,4503.00
1054.73,3779.00
1056.50,3209.00
1058.27,3154.00
1060.04,2656.00
1061.81,2856.00
1063.57,1729.00
1065.34,2369.00
1067.10,2241.00
1068.87,2185.00
1070.63,1944.00
1072.39,1488.00
1074.15,2550.00
1075.91,1651.00
1077.67,2260.00
1079.43,1945.00
1081.19,1269.00
1082.95,834.00
1084.70,2548.00
1086.46,2299.00
1088.21,1371.00
1089.96,1506.00
1091.71,486.00
1093.47,1186.00
1095.22,859.00
1096.96,1206.00
1098.71,2224.00
1100.46,1756.00
1102.21,1710.00
1103.95,988.00
1105.70,1020.00
1107.44,1318.00
1109.18,1165.00
1110.92,1247.00
1112.66,1168.00
1114.40,1410.00
1116.14,839.00
1117.88,876.00
1119.62,1141.00
1121.35,1526.00
1123.09,1215.00
1124.82,772.00
1126.56,1500.00
1128.29,901.00
1130.02,1861.00
1131.75,1794.00
1133.48,801.00
1135.21,1212.00
1136.94,1744.00
1138.67,1474.00
1140.39,1681.00
1142.12,1579.00
1143.84,2034.00
1145.57,1259.00
1147.29,2167.00
1149.01,1983.00
1150.73,1575.00
1152.45,1835.00
1154.17,2281.00
1155.89,1001.00
1157.60,1939.00
1159.32,2781.00
1161.04,1866.00
1162.75,1608.00
1164.46,2308.00
1166.18,2739.00
1167.89,2378.00
1169.60,2190.00
1171.31,2804.00
1173.02,2904.00
1174.73,2658.00
1176.43,1692.00
1178.14,2827.00
1179.85,2398.00
1181.55,1712.00
1183.25,1848.00
1184.96,2014.00
1186.66,1494.00
1188.36,2532.00
1190.06,3265.00
1191.76,2103.00
1193.46,3499.00
1195.16,1995.00
1196.85,1808.00
1198.55,2087.00
1200.24,1540.00
1201.94,1956.00
1203.63,1700.00
1205.32,1587.00
1207.02,1330.00
1208.71,1047.00
1210.40,1759.00
1212.09,2282.00
1213.77,1542.00
1215.46,761.00
1217.15,1430.00
1218.83,1311.00
1220.52,1034.00
1222.20,1151.00
1223.88,1151.00
1225.57,739.00
1227.25,863.00
1228.93,212.00
1230.61,1035.00
1232.29,709.00
1233.96,241.00
1235.64,727.00
1237.32,1276.00
1238.99,851.00
1240.67,1243.00
1242.34,959.00
1244.01,1305.00
1245.69,159.00
1247.36,758.00
1249.03,864.00
1250.70,487.00
1252.36,784.00
1254.03,691.00
1255.70,555.00
1257.37,484.00
1259.03,893.00
1260.69,139.00
1262.36,-186.00
1264.02,857.00
1265.68,828.00
1267.34,159.00
1269.00,610.00
1270.66,357.00
1272.32,47.00
1273.98,594.00
1275.64,-239.00
1277.29,417.00
1278.95,391.00
1280.60,205.00
1282.25,715.00
1283.91,1135.00
1285.56,1050.00
1287.21,1033.00
1288.86,297.00
1290.51,283.00
1292.16,507.00
1293.81,598.00
1295.45,80.00
1297.10,520.00
1298.74,338.00
1300.39,293.00
1302.03,-18.00
1303.68,309.00
1305.32,-32.00
1306.96,-35.00
1308.60,-329.00
1310.24,-32.00
1311.88,603.00
1313.52,489.00
1315.15,400.00
1316.79,395.00
1318.42,715.00
1320.06,311.00
1321.69,557.00
1323.33,-62.00
1324.96,391.00
1326.59,1093.00
1328.22,767.00
1329.85,411.00
1331.48,595.00
1333.11,773.00
1334.74,458.00
1336.36,588.00
1337.99,526.00
1339.61,203.00
1341.24,698.00
1342.86,1126.00
1344.48,506.00
1346.11,752.00
1347.73,355.00
1349.35,926.00
1350.97,577.00
1352.58,723.00
1354.20,218.00
1355.82,239.00
1357.44,1004.00
1359.05,474.00
1360.67,584.00
1362.28,449.00
1363.89,595.00
1365.51,119.00
1367.12,421.00
1368.73,1181.00
1370.34,1206.00
1371.95,901.00
1373.56,1175.00
1375.17,1047.00
1376.77,-198.00
1378.38,302.00
1379.98,755.00
1381.59,472.00
1383.19,373.00
1384.80,-77.00
1386.40,811.00
1388.00,177.00
1389.60,1248.00
1391.20,566.00
1392.80,983.00
1394.40,884.00
1396.00,368.00
1397.59,7.00
1399.19,384.00
1400.78,548.00
1402.38,602.00
1403.97,628.00
1405.57,462.00
1407.16,329.00
1408.75,1145.00
1410.34,1020.00
1411.93,588.00
1413.52,493.00
1415.11,624.00
1416.70,20.00
1418.28,540.00
1419.87,607.00
1421.46,822.00
1423.04,278.00
1424.63,297.00
1426.21,1155.00
1427.79,966.00
1429.37,1266.00
1430.95,-259.00
1432.54,752.00
1434.11,88.00
1435.69,281.00
1437.27,1460.00
1438.85,122.00
1440.43,259.00
1442.00,953.00
1443.58,275.00
1445.15,441.00
1446.72,1291.00
1448.30,373.00
1449.87,416.00
1451.44,811.00
1453.01,1162.00
1454.58,1027.00
1456.15,335.00
1457.72,760.00
1459.29,718.00
1460.85,1206.00
1462.42,645.00
1463.99,904.00
1465.55,743.00
1467.12,970.00
1468.68,1276.00
1470.24,801.00
1471.80,832.00
1473.36,755.00
1474.93,1605.00
1476.49,1001.00
1478.04,813.00
1479.60,1406.00
1481.16,1109.00
1482.72,666.00
1484.27,1370.00
1485.83,1032.00
1487.38,928.00
1488.94,1238.00
1490.49,832.00
1492.04,1098.00
1493.60,1345.00
1495.15,1215.00
1496.70,1039.00
1498.25,1292.00
1499.80,864.00
1501.34,947.00
1502.89,537.00
1504.44,684.00
1505.98,551.00
1507.53,943.00
1509.07,881.00
1510.62,896.00
1512.16,560.00
1513.70,558.00
1515.25,1616.00
1516.79,1741.00
1518.33,1032.00
1519.87,1324.00
1521.41,1096.00
1522.95,1934.00
1524.48,1600.00
1526.02,1530.00
1527.56,2077.00
1529.09,2167.00
1530.63,2764.00
1532.16,1957.00
1533.69,2027.00
1535.23,2050.00
1536.76,3088.00
1538.29,3281.00
1539.82,2995.00
1541.35,2193.00
1542.88,2810.00
1544.41,2410.00
1545.94,2286.00
1547.47,2841.00
1548.99,2847.00
1550.52,2257.00
1552.04,1960.00
1553.57,2945.00
1555.09,2105.00
1556.61,2229.00
1558.14,2244.00
1559.66,2198.00
1561.18,1675.00
1562.70,1815.00
1564.22,1982.00
1565.74,1775.00
1567.26,2365.00
1568.78,1982.00
1570.29,1719.00
1571.81,2128.00
1573.32,893.00
1574.84,1840.00
1576.35,2171.00
1577.87,1881.00
1579.38,1562.00
1580.89,1807.00
1582.41,1398.00
1583.92,1947.00
1585.43,1581.00
1586.94,1570.00
1588.45,2529.00
1589.95,1895.00
1591.46,1077.00
1592.97,1634.00
1594.47,576.00
1595.98,1388.00
1597.49,851.00
1598.99,1582.00
1600.49,2024.00
1602.00,1429.00
1603.50,1360.00
1605.00,1498.00
1606.50,1461.00
1608.00,1804.00
1609.50,1480.00
1611.00,1338.00
1612.50,1916.00
1614.00,1265.00
1615.49,1629.00
1616.99,2011.00
1618.49,1590.00
1619.98,1822.00
1621.48,2210.00
1622.97,1737.00
1624.46,1506.00
1625.96,1792.00
1627.45,2308.00
1628.94,996.00
1630.43,2441.00
1631.92,972.00
1633.41,2887.00
1634.90,2486.00
1636.39,1746.00
1637.87,2064.00
1639.36,2644.00
1640.85,2763.00
1642.33,2818.00
1643.82,2301.00
1645.30,2953.00
1646.78,1927.00
1648.27,2393.00
1649.75,2361.00
1651.23,2540.00
1652.71,2290.00
1654.19,2309.00
1655.67,2258.00
1657.15,1292.00
1658.63,2277.00
1660.11,1480.00
1661.58,2088.00
1663.06,2154.00
1664.54,1310.00
1666.01,1440.00
1667.49,1541.00
1668.96,1975.00
1670.43,1651.00
1671.91,1174.00
1673.38,1176.00
1674.85,1278.00
1676.32,1238.00
1677.79,2055.00
1679.26,927.00
1680.73,1107.00
1682.20,1211.00
1683.67,1020.00
1685.14,269.00
1686.60,813.00
1688.07,817.00
1689.53,103.00
1691.00,847.00
1692.46,446.00
1693.93,1004.00
1695.39,938.00
1696.85,491.00
1698.31,620.00
1699.77,1046.00
1701.23,969.00
1702.69,863.00
1704.15,1061.00
1705.61,329.00
1707.07,1056.00
1708.53,1291.00
1709.98,359.00
1711.44,529.00
1712.90,226.00
1714.35,841.00
1715.81,560.00
1717.26,36.00
1718.71,1019.00
1720.16,744.00
1721.62,447.00
1723.07,247.00
1724.52,69.00
1725.97,270.00
1727.42,143.00
1728.87,697.00
1730.32,968.00
1731.76,-153.00
1733.21,-506.00
1734.66,468.00
1736.10,-132.00
1737.55,757.00
1738.99,461.00
1740.44,756.00
1741.88,-454.00
1743.32,-588.00
1744.77,304.00
1746.21,145.00
1747.65,816.00
1749.09,176.00
1750.53,41.00
1751.97,393.00
1753.41,986.00
1754.85,796.00
1756.29,31.00
1757.72,404.00
1759.16,272.00
1760.60,432.00
1762.03,318.00
1763.47,471.00
1764.90,456.00
1766.33,878.00
1767.77,915.00
1769.20,260.00
1770.63,129.00
1772.06,459.00
1773.49,312.00
1774.92,305.00
1776.35,693.00
1777.78,471.00
1779.21,-118.00
1780.64,-267.00
1782.07,-487.00
1783.49,838.00
1784.92,-145.00
1786.34,-23.00
1787.77,405.00
1789.19,454.00
1790.62,1029.00
1792.04,109.00
1793.46,967.00
1794.89,906.00
1796.31,322.00
1797.73,-17.00
1799.15,278.00
1800.57,167.00
1801.99,461.00
1803.41,198.00
1804.83,492.00
1806.24,-400.00
1807.66,-315.00
1809.08,588.00
1810.49,-169.00
1811.91,328.00
1813.32,-357.00
1814.74,577.00
1816.15,343.00
1817.57,-110.00
1818.98,468.00
1820.39,-51.00
1821.80,297.00
1823.21,-377.00
1824.62,769.00
1826.03,11.00
1827.44,-51.00
1828.85,620.00
1830.26,-87.00
1831.67,1136.00
1833.08,251.00
1834.48,-600.00
1835.89,233.00
1837.29,-417.00
1838.70,229.00
1840.10,226.00
1841.51,718.00
1842.91,-491.00
1844.31,348.00
1845.72,30.00
1847.12,59.00
1848.52,114.00
1849.92,-75.00
1851.32,-275.00
1852.72,485.00
1854.12,103.00
1855.52,108.00
1856.91,-5.00
1858.31,-22.00
1859.71,268.00
